time,TP9,AF7,AF8,TP10,AUX
1731725532405,-98.6328125,-455.56640625,-681.15234375,-44.921875,NaN
1731725532408.9062,-93.26171875,-301.7578125,-671.38671875,-44.921875,NaN
1731725532412.8125,-79.58984375,-284.1796875,-771.484375,-32.2265625,NaN
1731725532416.7188,-96.6796875,-665.52734375,-922.8515625,-22.4609375,NaN
1731725532420.625,-136.23046875,-791.9921875,-908.69140625,-29.78515625,NaN
1731725532424.5312,-136.23046875,-689.94140625,-925.78125,-52.24609375,NaN
1731725532428.4375,-120.1171875,-559.5703125,-901.85546875,-41.50390625,NaN
1731725532432.3438,-100.5859375,-650.87890625,-882.8125,-5.859375,NaN
1731725532436.25,-108.3984375,-776.3671875,-854.98046875,-10.25390625,NaN
1731725532440.1562,-120.1171875,-338.37890625,-662.59765625,-43.9453125,NaN
1731725532444.0625,-73.73046875,-382.32421875,-832.51953125,-36.1328125,NaN
1731725532447.9688,-46.38671875,-520.99609375,-898.92578125,-27.34375,NaN
1731725532451.875,-74.21875,-299.8046875,-599.12109375,-37.109375,NaN
1731725532455.7812,-100.09765625,-291.50390625,-634.27734375,-47.36328125,NaN
1731725532459.6875,-42.48046875,-578.61328125,-945.3125,-33.203125,NaN
1731725532463.5938,7.8125,-573.73046875,-871.09375,-20.01953125,NaN
1731725532467.5,-17.08984375,-365.72265625,-648.92578125,-21.97265625,NaN
1731725532471.4062,-38.57421875,-735.3515625,-890.625,-17.578125,NaN
1731725532475.3125,-26.3671875,-997.0703125,-1000,-25.87890625,NaN
1731725532479.2188,-12.6953125,-1000,-1000,-35.64453125,NaN
1731725532483.125,-27.34375,-772.94921875,-890.13671875,-34.66796875,NaN
1731725532487.0312,-43.45703125,-250.9765625,-619.140625,-31.73828125,NaN
1731725532490.9375,-28.80859375,-500,-808.59375,-34.1796875,NaN
1731725532494.8438,-17.08984375,-685.546875,-966.30859375,-33.69140625,NaN
1731725532498.75,-33.69140625,-267.08984375,-683.10546875,-29.78515625,NaN
1731725532502.6562,-37.59765625,-162.59765625,-564.453125,-35.64453125,NaN
1731725532506.5625,-44.921875,-624.51171875,-821.77734375,-33.203125,NaN
1731725532510.4688,-54.6875,-819.3359375,-997.55859375,-24.4140625,NaN
1731725532514.375,-17.08984375,-606.4453125,-970.21484375,-18.06640625,NaN
1731725532518.2812,-43.9453125,-718.75,-961.42578125,-17.08984375,NaN
1731725532522.1875,-86.42578125,-919.921875,-971.19140625,-44.921875,NaN
1731725532526.0938,-103.02734375,-849.609375,-977.05078125,-50.78125,NaN
1731725532530,-119.140625,-729.4921875,-1000,-33.69140625,NaN
1731725532533.9062,-118.65234375,-586.9140625,-857.421875,-32.2265625,NaN
1731725532537.8125,-121.58203125,-675.78125,-837.890625,-37.109375,NaN
1731725532541.7188,-87.40234375,-786.62109375,-924.31640625,-43.45703125,NaN
1731725532545.625,-36.62109375,-307.12890625,-694.82421875,-37.59765625,NaN
1731725532549.5312,-39.55078125,-55.17578125,-408.69140625,-21.484375,NaN
1731725532553.4375,-70.80078125,-115.72265625,-348.6328125,-35.64453125,NaN
1731725532557.3438,-75.1953125,-234.375,-514.6484375,-43.45703125,NaN
1731725532561.25,-46.38671875,-146.484375,-540.52734375,-41.50390625,NaN
1731725532565.1562,-38.0859375,-237.79296875,-533.203125,-36.62109375,NaN
1731725532569.0625,-58.10546875,-736.81640625,-798.33984375,-25.390625,NaN
1731725532572.9688,-51.26953125,-678.7109375,-805.6640625,-26.85546875,NaN
1731725532576.875,-24.90234375,-59.08203125,-439.453125,-31.25,NaN
1731725532580.7812,-4.8828125,-109.375,-452.63671875,-26.85546875,NaN
1731725532584.6875,-26.85546875,-329.1015625,-517.578125,-28.80859375,NaN
1731725532588.5938,-53.7109375,-492.67578125,-657.2265625,-52.24609375,NaN
1731725532592.5,-31.25,-315.4296875,-633.7890625,-72.75390625,NaN
1731725532596.4062,-7.32421875,-381.8359375,-687.5,-59.08203125,NaN
1731725532600.3125,-52.734375,-629.39453125,-737.79296875,-53.7109375,NaN
1731725532604.2188,-126.46484375,-30.2734375,-230.95703125,-56.15234375,NaN
1731725532608.125,-130.859375,-46.38671875,-382.8125,-53.22265625,NaN
1731725532612.0312,-118.1640625,-797.8515625,-971.19140625,-57.12890625,NaN
1731725532615.9375,-140.625,-766.11328125,-841.30859375,-48.33984375,NaN
1731725532619.8438,-186.03515625,-138.18359375,-393.5546875,-71.2890625,NaN
1731725532623.75,-196.2890625,-135.25390625,-436.5234375,-87.890625,NaN
1731725532627.6562,-180.17578125,-566.89453125,-804.19921875,-80.56640625,NaN
1731725532631.5625,-157.2265625,-468.26171875,-745.1171875,-68.84765625,NaN
1731725532635.4688,-145.01953125,118.65234375,-187.98828125,-54.19921875,NaN
1731725532639.375,-145.99609375,0.48828125,-294.921875,-67.87109375,NaN
1731725532643.2812,-92.7734375,-755.37109375,-903.80859375,-70.80078125,NaN
1731725532647.1875,-71.77734375,-926.26953125,-999.51171875,-78.61328125,NaN
1731725532651.0938,-87.40234375,-135.7421875,-427.734375,-77.63671875,NaN
1731725532655,-78.125,-64.453125,-374.51171875,-71.2890625,NaN
1731725532658.9062,-86.9140625,-833.984375,-915.0390625,-107.421875,NaN
1731725532662.8125,-117.1875,-958.0078125,-1000,-125.9765625,NaN
1731725532666.7188,-165.52734375,-397.4609375,-759.27734375,-120.60546875,NaN
1731725532670.625,-202.1484375,-149.4140625,-416.015625,-140.625,NaN
1731725532674.5312,-238.76953125,-565.91796875,-814.453125,-185.05859375,NaN
1731725532678.4375,-252.44140625,-758.30078125,-1000,-186.5234375,NaN
1731725532682.3438,-265.625,-590.8203125,-931.15234375,-183.10546875,NaN
1731725532686.25,-285.64453125,-614.74609375,-888.671875,-195.80078125,NaN
1731725532690.1562,-299.8046875,-915.0390625,-987.79296875,-209.9609375,NaN
1731725532694.0625,-306.15234375,-972.65625,-1000,-229.4921875,NaN
1731725532697.9688,-322.265625,-764.16015625,-989.74609375,-224.609375,NaN
1731725532701.875,-323.2421875,-760.7421875,-991.69921875,-185.546875,NaN
1731725532705.7812,-337.40234375,-991.69921875,-994.62890625,-198.2421875,NaN
1731725532709.6875,-347.16796875,-1000,-1000,-252.44140625,NaN
1731725532713.5938,-319.82421875,-713.8671875,-946.77734375,-238.76953125,NaN
1731725532717.5,-343.75,-713.8671875,-923.33984375,-188.4765625,NaN
1731725532721.4062,-340.8203125,-890.13671875,-967.28515625,-177.734375,NaN
1731725532725.3125,-336.9140625,-703.125,-947.265625,-204.58984375,NaN
1731725532729.2188,-307.6171875,-830.078125,-1000,-210.9375,NaN
1731725532733.125,-299.8046875,-777.34375,-994.62890625,-169.921875,NaN
1731725532737.0312,-359.86328125,-413.0859375,-666.9921875,-174.31640625,NaN
1731725532740.9375,-353.515625,-224.12109375,-578.61328125,-217.28515625,NaN
1731725532744.8438,-316.89453125,-492.67578125,-926.7578125,-223.6328125,NaN
1731725532748.75,-305.17578125,-594.23828125,-922.8515625,-191.40625,NaN
1731725532752.6562,-291.50390625,-423.828125,-614.2578125,-167.96875,NaN
1731725532756.5625,-267.578125,-371.09375,-568.359375,-187.98828125,NaN
1731725532760.4688,-238.76953125,-528.80859375,-833.0078125,-202.1484375,NaN
1731725532764.375,-201.66015625,-958.984375,-1000,-185.546875,NaN
1731725532768.2812,-168.9453125,-629.39453125,-697.265625,-138.671875,NaN
1731725532772.1875,-143.5546875,251.953125,-56.15234375,-138.671875,NaN
1731725532776.0938,-151.3671875,-259.27734375,-518.5546875,-181.15234375,NaN
1731725532780,-145.5078125,-662.109375,-851.07421875,-184.08203125,NaN
1731725532783.9062,-141.11328125,222.16796875,-80.078125,-176.7578125,NaN
1731725532787.8125,-166.50390625,596.6796875,310.546875,-161.1328125,NaN
1731725532791.7188,-196.2890625,-9.27734375,-270.99609375,-176.26953125,NaN
1731725532795.625,-171.38671875,-383.30078125,-696.77734375,-178.7109375,NaN
1731725532799.5312,-125.48828125,-233.3984375,-458.0078125,-136.23046875,NaN
1731725532803.4375,-84.47265625,142.578125,8.30078125,-119.140625,NaN
1731725532807.3438,-65.4296875,-228.515625,-325.1953125,-145.01953125,NaN
1731725532811.25,-133.7890625,-825.1953125,-943.84765625,-123.53515625,NaN
1731725532815.1562,-131.8359375,-261.23046875,-531.73828125,-107.421875,NaN
1731725532819.0625,-111.81640625,212.890625,46.875,-149.90234375,NaN
1731725532822.9688,-185.546875,-239.2578125,-268.06640625,-146.97265625,NaN
1731725532826.875,-227.5390625,-629.39453125,-776.85546875,-138.18359375,NaN
1731725532830.7812,-225.09765625,9.765625,-335.9375,-146.97265625,NaN
1731725532834.6875,-214.84375,301.26953125,87.890625,-111.81640625,NaN
1731725532838.5938,-201.66015625,139.16015625,58.10546875,-94.23828125,NaN
1731725532842.5,-202.1484375,-110.83984375,-280.2734375,-114.74609375,NaN
1731725532846.4062,-190.4296875,-470.21484375,-670.8984375,-116.69921875,NaN
1731725532850.3125,-175.29296875,-320.80078125,-401.85546875,-98.14453125,NaN
1731725532854.2188,-164.0625,-483.88671875,-378.90625,-75.68359375,NaN
1731725532858.125,-181.640625,-498.046875,-482.421875,-81.0546875,NaN
1731725532862.0312,-193.359375,149.90234375,-90.33203125,-96.19140625,NaN
1731725532865.9375,-176.7578125,55.17578125,-99.12109375,-82.51953125,NaN
1731725532869.8438,-208.984375,134.27734375,136.23046875,-70.80078125,NaN
1731725532873.75,-216.796875,182.6171875,168.9453125,-83.0078125,NaN
1731725532877.6562,-186.03515625,121.09375,-35.15625,-87.40234375,NaN
1731725532881.5625,-160.64453125,-44.921875,-162.59765625,-77.1484375,NaN
1731725532885.4688,-141.6015625,-222.16796875,-142.578125,-67.3828125,NaN
1731725532889.375,-157.2265625,236.328125,221.6796875,-80.078125,NaN
1731725532893.2812,-172.8515625,-117.67578125,-192.87109375,-93.75,NaN
1731725532897.1875,-153.3203125,-852.5390625,-868.65234375,-79.1015625,NaN
1731725532901.0938,-119.62890625,-639.6484375,-630.859375,-51.26953125,NaN
1731725532905,-122.55859375,213.8671875,156.25,-62.5,NaN
1731725532908.9062,-122.0703125,151.85546875,-8.30078125,-87.40234375,NaN
1731725532912.8125,-101.5625,-479.4921875,-652.83203125,-100.09765625,NaN
1731725532916.7188,-82.51953125,-297.8515625,-422.36328125,-86.9140625,NaN
1731725532920.625,-92.7734375,371.58203125,267.08984375,-60.546875,NaN
1731725532924.5312,-108.3984375,127.9296875,-46.38671875,-82.03125,NaN
1731725532928.4375,-98.6328125,-508.30078125,-735.83984375,-92.28515625,NaN
1731725532932.3438,-95.21484375,-511.71875,-695.3125,-77.1484375,NaN
1731725532936.25,-124.0234375,140.13671875,-15.625,-54.6875,NaN
1731725532940.1562,-148.92578125,-65.91796875,-193.84765625,-67.87109375,NaN
1731725532944.0625,-137.20703125,-941.40625,-971.6796875,-67.87109375,NaN
1731725532947.9688,-114.2578125,-762.20703125,-833.984375,-43.9453125,NaN
1731725532951.875,-125.9765625,224.12109375,5.37109375,-66.40625,NaN
1731725532955.7812,-146.97265625,211.9140625,41.9921875,-78.61328125,NaN
1731725532959.6875,-140.625,-353.02734375,-582.51953125,-75.1953125,NaN
1731725532963.5938,-161.1328125,-195.80078125,-534.1796875,-61.03515625,NaN
1731725532967.5,-185.546875,192.87109375,-85.9375,-41.015625,NaN
1731725532971.4062,-183.59375,163.57421875,14.6484375,-30.76171875,NaN
1731725532975.3125,-157.2265625,-134.27734375,-305.17578125,-74.21875,NaN
1731725532979.2188,-126.46484375,-30.76171875,-392.578125,-99.609375,NaN
1731725532983.125,-126.953125,283.203125,-24.90234375,-49.8046875,NaN
1731725532987.0312,-124.0234375,-214.35546875,-271.484375,-39.55078125,NaN
1731725532990.9375,-139.6484375,-915.0390625,-917.96875,-79.1015625,NaN
1731725532994.8438,-147.4609375,-649.4140625,-873.046875,-86.9140625,NaN
1731725532998.75,-110.3515625,84.9609375,-269.53125,-52.734375,NaN
1731725533002.6562,-96.6796875,-230.46875,-360.3515625,-27.83203125,NaN
1731725533006.5625,-157.2265625,-680.17578125,-744.140625,-54.19921875,NaN
1731725533010.4688,-177.24609375,-52.734375,-363.28125,-84.47265625,NaN
1731725533014.375,-120.1171875,-119.62890625,-490.234375,-45.8984375,NaN
1731725533018.2812,-102.05078125,-124.51171875,-355.46875,-48.828125,NaN
1731725533022.1875,-155.2734375,-4.8828125,-203.61328125,-91.30859375,NaN
1731725533026.0938,-190.4296875,-297.8515625,-651.85546875,-95.703125,NaN
1731725533030,-173.33984375,-478.515625,-893.06640625,-75.68359375,NaN
1731725533033.9062,-156.25,-698.73046875,-848.14453125,-50.29296875,NaN
1731725533037.8125,-132.8125,-564.453125,-608.88671875,-68.84765625,NaN
1731725533041.7188,-133.7890625,-122.0703125,-419.43359375,-81.54296875,NaN
1731725533045.625,-150.87890625,-456.0546875,-733.88671875,-74.21875,NaN
1731725533049.5312,-142.578125,-955.078125,-1000,-62.5,NaN
1731725533053.4375,-144.53125,-296.875,-427.734375,-63.96484375,NaN
1731725533057.3438,-105.95703125,56.640625,-251.46484375,-68.359375,NaN
1731725533061.25,-77.1484375,-672.36328125,-922.36328125,-77.63671875,NaN
1731725533065.1562,-86.9140625,-746.09375,-848.14453125,-56.640625,NaN
1731725533069.0625,-117.67578125,-74.21875,-272.94921875,-51.26953125,NaN
1731725533072.9688,-118.65234375,62.5,-221.6796875,-82.03125,NaN
1731725533076.875,-86.9140625,-572.265625,-749.51171875,-100.09765625,NaN
1731725533080.7812,-72.265625,-986.328125,-1000,-87.40234375,NaN
1731725533084.6875,-61.03515625,-517.578125,-639.16015625,-44.921875,NaN
1731725533088.5938,-50.29296875,-31.25,-215.33203125,-46.875,NaN
1731725533092.5,-73.73046875,-553.7109375,-653.80859375,-63.96484375,NaN
1731725533096.4062,-109.86328125,-955.56640625,-1000,-56.640625,NaN
1731725533100.3125,-68.84765625,-337.890625,-562.01171875,-40.52734375,NaN
1731725533104.2188,-85.44921875,-291.9921875,-422.36328125,-54.19921875,NaN
1731725533108.125,-128.41796875,-835.9375,-878.90625,-57.12890625,NaN
1731725533112.0312,-113.28125,-803.7109375,-1000,-58.59375,NaN
1731725533115.9375,-56.640625,-329.1015625,-668.45703125,-36.1328125,NaN
1731725533119.8438,-39.0625,-95.21484375,-286.1328125,-24.90234375,NaN
1731725533123.75,-76.171875,-482.91015625,-602.5390625,-39.55078125,NaN
1731725533127.6562,-80.56640625,-998.53515625,-1000,-54.19921875,NaN
1731725533131.5625,-69.82421875,-756.34765625,-836.42578125,-70.80078125,NaN
1731725533135.4688,-78.125,-306.640625,-450.68359375,-32.71484375,NaN
1731725533139.375,-103.02734375,-775.87890625,-783.203125,-36.62109375,NaN
1731725533143.2812,-110.3515625,-821.2890625,-952.63671875,-78.61328125,NaN
1731725533147.1875,-116.69921875,-498.53515625,-761.23046875,-46.38671875,NaN
1731725533151.0938,-149.90234375,-530.2734375,-562.98828125,-16.6015625,NaN
1731725533155,-224.12109375,-325.1953125,-262.20703125,-51.7578125,NaN
1731725533158.9062,-272.4609375,-461.9140625,-499.51171875,-76.66015625,NaN
1731725533162.8125,-253.90625,-323.2421875,-436.03515625,-60.05859375,NaN
1731725533166.7188,-244.62890625,-50.78125,-83.0078125,-39.55078125,NaN
1731725533170.625,-246.58203125,-256.34765625,-124.0234375,-57.6171875,NaN
1731725533174.5312,-275.390625,-280.76171875,-184.08203125,-81.54296875,NaN
1731725533178.4375,-263.671875,-297.8515625,-324.21875,-88.8671875,NaN
1731725533182.3438,-232.91015625,-535.15625,-527.34375,-59.5703125,NaN
1731725533186.25,-249.51171875,-600.09765625,-461.9140625,-57.6171875,NaN
1731725533190.1562,-275.390625,104.4921875,113.28125,-102.05078125,NaN
1731725533194.0625,-275.390625,-100.09765625,-200.68359375,-106.4453125,NaN
1731725533197.9688,-256.8359375,-359.375,-407.2265625,-83.984375,NaN
1731725533201.875,-247.55859375,175.78125,191.40625,-60.546875,NaN
1731725533205.7812,-276.85546875,640.13671875,632.8125,-67.87109375,NaN
1731725533209.6875,-284.1796875,309.5703125,239.74609375,-94.23828125,NaN
1731725533213.5938,-258.7890625,-123.046875,-195.80078125,-84.9609375,NaN
1731725533217.5,-242.67578125,-36.62109375,-8.30078125,-51.7578125,NaN
1731725533221.4062,-236.81640625,-36.62109375,106.93359375,-54.6875,NaN
1731725533225.3125,-262.6953125,-328.61328125,-250.48828125,-103.515625,NaN
1731725533229.2188,-265.13671875,-876.953125,-884.765625,-105.46875,NaN
1731725533233.125,-213.8671875,-489.74609375,-513.18359375,-57.12890625,NaN
1731725533237.0312,-182.6171875,420.8984375,352.05078125,-77.1484375,NaN
1731725533240.9375,-164.55078125,67.87109375,-3.90625,-118.1640625,NaN
1731725533244.8438,-126.46484375,-662.109375,-733.3984375,-109.86328125,NaN
1731725533248.75,-103.515625,-374.0234375,-521.484375,-86.9140625,NaN
1731725533252.6562,-100.5859375,165.52734375,37.59765625,-83.49609375,NaN
1731725533256.5625,-102.05078125,-124.51171875,-172.8515625,-110.83984375,NaN
1731725533260.4688,-119.140625,-509.765625,-645.5078125,-148.92578125,NaN
1731725533264.375,-117.67578125,-218.26171875,-480.95703125,-148.92578125,NaN
1731725533268.2812,-99.609375,-81.0546875,-212.40234375,-115.72265625,NaN
1731725533272.1875,-131.34765625,-590.33203125,-577.1484375,-89.35546875,NaN
1731725533276.0938,-170.8984375,-961.9140625,-1000,-127.44140625,NaN
1731725533280,-142.578125,-568.359375,-833.49609375,-149.90234375,NaN
1731725533283.9062,-107.421875,-5.37109375,-286.1328125,-141.6015625,NaN
1731725533287.8125,-104.00390625,-88.8671875,-197.75390625,-134.765625,NaN
1731725533291.7188,-121.09375,-472.16796875,-600.09765625,-136.23046875,NaN
1731725533295.625,-86.9140625,-386.23046875,-684.5703125,-134.765625,NaN
1731725533299.5312,-62.5,-165.0390625,-427.24609375,-126.953125,NaN
1731725533303.4375,-116.69921875,-128.90625,-232.91015625,-136.71875,NaN
1731725533307.3438,-181.15234375,-150.87890625,-291.50390625,-164.55078125,NaN
1731725533311.25,-181.15234375,-287.109375,-557.12890625,-163.0859375,NaN
1731725533315.1562,-148.92578125,-623.53515625,-779.78515625,-120.60546875,NaN
1731725533319.0625,-142.08984375,-907.2265625,-899.4140625,-81.0546875,NaN
1731725533322.9688,-124.0234375,-661.62109375,-731.93359375,-114.2578125,NaN
1731725533326.875,-125,-402.83203125,-628.90625,-153.80859375,NaN
1731725533330.7812,-105.95703125,-732.91015625,-917.96875,-122.0703125,NaN
1731725533334.6875,-111.81640625,-655.2734375,-710.44921875,-92.7734375,NaN
1731725533338.5938,-104.00390625,-132.8125,-221.6796875,-88.37890625,NaN
1731725533342.5,-84.9609375,-187.98828125,-395.99609375,-140.625,NaN
1731725533346.4062,-58.10546875,-619.140625,-798.33984375,-144.04296875,NaN
1731725533350.3125,-36.1328125,-638.18359375,-675.78125,-103.02734375,NaN
1731725533354.2188,-117.67578125,104.4921875,44.43359375,-120.1171875,NaN
1731725533358.125,-97.16796875,178.22265625,36.62109375,-150.390625,NaN
1731725533362.0312,-81.0546875,-645.01953125,-740.234375,-139.16015625,NaN
1731725533365.9375,-92.7734375,-836.42578125,-826.66015625,-101.5625,NaN
1731725533369.8438,-62.5,147.4609375,121.09375,-100.09765625,NaN
1731725533373.75,-67.87109375,381.34765625,249.0234375,-127.44140625,NaN
1731725533377.6562,-82.03125,-459.47265625,-591.796875,-124.51171875,NaN
1731725533381.5625,-29.78515625,-454.1015625,-574.70703125,-91.30859375,NaN
1731725533385.4688,35.64453125,326.66015625,210.44921875,-55.6640625,NaN
1731725533389.375,-30.76171875,190.4296875,177.24609375,-97.16796875,NaN
1731725533393.2812,-61.5234375,-580.56640625,-605.46875,-128.41796875,NaN
1731725533397.1875,-40.52734375,-359.375,-494.140625,-99.609375,NaN
1731725533401.0938,-68.84765625,371.09375,227.5390625,-88.37890625,NaN
1731725533405,-48.828125,310.05859375,260.25390625,-85.9375,NaN
1731725533408.9062,-41.9921875,-495.1171875,-458.49609375,-104.4921875,NaN
1731725533412.8125,-57.6171875,-764.16015625,-812.5,-110.83984375,NaN
1731725533416.7188,-27.83203125,69.3359375,-101.07421875,-65.91796875,NaN
1731725533420.625,-24.4140625,348.6328125,277.83203125,-41.015625,NaN
1731725533424.5312,-80.078125,-478.02734375,-486.81640625,-81.0546875,NaN
1731725533428.4375,-109.86328125,-721.19140625,-908.69140625,-109.375,NaN
1731725533432.3438,-71.2890625,-190.4296875,-450.68359375,-83.0078125,NaN
1731725533436.25,-57.6171875,-104.4921875,-191.40625,-62.01171875,NaN
1731725533440.1562,-62.98828125,-196.77734375,-264.16015625,-79.1015625,NaN
1731725533444.0625,-78.125,-314.94140625,-538.0859375,-97.16796875,NaN
1731725533447.9688,-95.21484375,-501.953125,-706.0546875,-95.21484375,NaN
1731725533451.875,-42.96875,-594.7265625,-690.91796875,-55.17578125,NaN
1731725533455.7812,-19.53125,-843.75,-848.14453125,-61.5234375,NaN
1731725533459.6875,-62.01171875,-763.671875,-885.25390625,-118.65234375,NaN
1731725533463.5938,-62.5,-495.1171875,-793.45703125,-118.65234375,NaN
1731725533467.5,-75.68359375,-644.04296875,-791.50390625,-63.96484375,NaN
1731725533471.4062,-105.95703125,-889.16015625,-913.0859375,-59.08203125,NaN
1731725533475.3125,-140.625,-498.046875,-705.56640625,-120.60546875,NaN
1731725533479.2188,-135.7421875,-468.26171875,-794.43359375,-94.7265625,NaN
1731725533483.125,-155.76171875,-494.140625,-709.47265625,-57.6171875,NaN
1731725533487.0312,-219.23828125,-140.625,-259.27734375,-73.2421875,NaN
1731725533490.9375,-225.09765625,-208.0078125,-412.109375,-81.0546875,NaN
1731725533494.8438,-171.875,-519.04296875,-802.24609375,-112.79296875,NaN
1731725533498.75,-147.94921875,-675.29296875,-869.140625,-112.79296875,NaN
1731725533502.6562,-118.1640625,-435.546875,-474.12109375,-77.63671875,NaN
1731725533506.5625,-109.375,-317.3828125,-347.65625,-97.16796875,NaN
1731725533510.4688,-124.51171875,-769.04296875,-830.078125,-146.484375,NaN
1731725533514.375,-67.87109375,-1000,-1000,-110.3515625,NaN
1731725533518.2812,-45.41015625,-626.46484375,-645.99609375,-43.45703125,NaN
1731725533522.1875,-88.37890625,95.21484375,-55.6640625,-71.2890625,NaN
1731725533526.0938,-69.82421875,-391.11328125,-568.84765625,-112.79296875,NaN
1731725533530,-54.6875,-720.703125,-882.8125,-119.62890625,NaN
1731725533533.9062,-43.9453125,131.8359375,-117.67578125,-104.4921875,NaN
1731725533537.8125,-28.80859375,523.4375,317.87109375,-89.84375,NaN
1731725533541.7188,-52.24609375,-32.2265625,-209.47265625,-102.5390625,NaN
1731725533545.625,-64.453125,-469.7265625,-704.1015625,-93.75,NaN
1731725533549.5312,-45.8984375,-281.73828125,-457.03125,-66.40625,NaN
1731725533553.4375,-28.3203125,370.1171875,235.83984375,-68.359375,NaN
1731725533557.3438,-41.015625,58.10546875,-44.921875,-87.890625,NaN
1731725533561.25,-36.62109375,-817.87109375,-886.71875,-112.3046875,NaN
1731725533565.1562,-1.46484375,-64.453125,-326.66015625,-99.609375,NaN
1731725533569.0625,23.92578125,712.890625,446.77734375,-60.546875,NaN
1731725533572.9688,42.48046875,61.03515625,-20.01953125,-75.1953125,NaN
1731725533576.875,-11.71875,-346.6796875,-497.55859375,-99.609375,NaN
1731725533580.7812,-62.5,274.4140625,-82.03125,-88.8671875,NaN
1731725533584.6875,-66.89453125,553.7109375,270.99609375,-54.6875,NaN
1731725533588.5938,-125,319.82421875,158.69140625,-68.359375,NaN
1731725533592.5,-124.0234375,5.37109375,-236.328125,-114.74609375,NaN
1731725533596.4062,-62.5,-203.61328125,-478.02734375,-96.6796875,NaN
1731725533600.3125,-103.02734375,-79.1015625,-267.578125,-58.59375,NaN
1731725533604.2188,-175.29296875,-396.97265625,-377.44140625,-68.84765625,NaN
1731725533608.125,-163.0859375,-418.45703125,-479.4921875,-93.75,NaN
1731725533612.0312,-155.2734375,183.59375,-186.03515625,-102.05078125,NaN
1731725533615.9375,-155.2734375,75.1953125,-190.91796875,-91.796875,NaN
1731725533619.8438,-132.8125,1.953125,-78.125,-83.984375,NaN
1731725533623.75,-146.97265625,252.9296875,86.42578125,-99.12109375,NaN
1731725533627.6562,-176.26953125,67.3828125,-271.97265625,-116.69921875,NaN
1731725533631.5625,-110.83984375,-216.796875,-490.72265625,-86.9140625,NaN
1731725533635.4688,-73.73046875,203.125,76.171875,-71.2890625,NaN
1731725533639.375,-100.09765625,737.79296875,546.875,-108.88671875,NaN
1731725533643.2812,-131.8359375,242.67578125,8.30078125,-116.69921875,NaN
1731725533647.1875,-128.41796875,-546.38671875,-691.40625,-100.5859375,NaN
1731725533651.0938,-98.6328125,-506.34765625,-532.2265625,-94.23828125,NaN
1731725533655,-104.4921875,500,365.72265625,-87.890625,NaN
1731725533658.9062,-88.37890625,478.515625,180.17578125,-94.23828125,NaN
1731725533662.8125,-46.38671875,-362.79296875,-646.484375,-110.83984375,NaN
1731725533666.7188,-79.58984375,-168.45703125,-395.5078125,-79.1015625,NaN
1731725533670.625,-117.1875,533.203125,313.4765625,-88.8671875,NaN
1731725533674.5312,-104.00390625,250.9765625,37.59765625,-128.41796875,NaN
1731725533678.4375,-142.578125,-535.64453125,-698.2421875,-112.3046875,NaN
1731725533682.3438,-144.53125,-363.76953125,-571.77734375,-113.28125,NaN
1731725533686.25,-116.69921875,318.84765625,70.80078125,-114.2578125,NaN
1731725533690.1562,-122.55859375,24.4140625,-128.41796875,-129.8828125,NaN
1731725533694.0625,-156.25,-809.08203125,-857.91015625,-125.48828125,NaN
1731725533697.9688,-156.25,-653.80859375,-805.6640625,-118.1640625,NaN
1731725533701.875,-107.91015625,204.1015625,-89.84375,-96.6796875,NaN
1731725533705.7812,-92.28515625,247.55859375,34.66796875,-87.890625,NaN
1731725533709.6875,-79.1015625,-337.890625,-575.1953125,-122.0703125,NaN
1731725533713.5938,-65.4296875,-461.42578125,-808.10546875,-111.328125,NaN
1731725533717.5,-94.23828125,72.265625,-245.60546875,-79.58984375,NaN
1731725533721.4062,-119.62890625,140.625,-21.484375,-71.77734375,NaN
1731725533725.3125,-142.578125,-265.625,-446.2890625,-97.65625,NaN
1731725533729.2188,-152.83203125,-256.34765625,-584.9609375,-114.2578125,NaN
1731725533733.125,-142.08984375,-40.0390625,-278.80859375,-78.125,NaN
1731725533737.0312,-116.2109375,-260.25390625,-251.46484375,-44.921875,NaN
1731725533740.9375,-121.09375,-603.02734375,-603.515625,-56.640625,NaN
1731725533744.8438,-151.85546875,-195.80078125,-492.67578125,-66.40625,NaN
1731725533748.75,-139.16015625,276.85546875,-104.00390625,-83.0078125,NaN
1731725533752.6562,-151.85546875,-91.30859375,-224.12109375,-91.30859375,NaN
1731725533756.5625,-187.98828125,-365.234375,-425.78125,-65.4296875,NaN
1731725533760.4688,-108.3984375,119.62890625,-254.8828125,-82.51953125,NaN
1731725533764.375,-104.00390625,37.109375,-427.734375,-90.8203125,NaN
1731725533768.2812,-137.6953125,27.34375,-281.25,-81.0546875,NaN
1731725533772.1875,-96.6796875,337.40234375,60.546875,-103.515625,NaN
1731725533776.0938,-83.0078125,385.7421875,-39.0625,-104.4921875,NaN
1731725533780,-82.03125,-13.671875,-484.86328125,-96.6796875,NaN
1731725533783.9062,-105.95703125,-212.40234375,-479.98046875,-68.84765625,NaN
1731725533787.8125,-110.83984375,24.4140625,-94.23828125,-61.5234375,NaN
1731725533791.7188,-95.21484375,15.625,-229.4921875,-61.5234375,NaN
1731725533795.625,-59.5703125,-240.234375,-650.390625,-54.19921875,NaN
1731725533799.5312,-84.47265625,-764.16015625,-942.3828125,-59.5703125,NaN
1731725533803.4375,-154.78515625,-344.7265625,-424.8046875,-53.22265625,NaN
1731725533807.3438,-148.4375,405.76171875,72.265625,-88.8671875,NaN
1731725533811.25,-95.21484375,-297.36328125,-674.8046875,-94.7265625,NaN
1731725533815.1562,-57.12890625,-501.46484375,-829.1015625,-55.17578125,NaN
1731725533819.0625,-65.91796875,217.7734375,-91.796875,-62.98828125,NaN
1731725533822.9688,-87.40234375,355.46875,57.12890625,-83.984375,NaN
1731725533826.875,-82.03125,-253.41796875,-559.5703125,-77.1484375,NaN
1731725533830.7812,-48.33984375,-805.17578125,-1000,-82.51953125,NaN
1731725533834.6875,-53.7109375,-340.33203125,-507.8125,-77.1484375,NaN
1731725533838.5938,-79.58984375,211.42578125,-41.015625,-80.56640625,NaN
1731725533842.5,-97.65625,-426.7578125,-590.8203125,-87.40234375,NaN
1731725533846.4062,-77.63671875,-1000,-1000,-57.6171875,NaN
1731725533850.3125,-52.24609375,-140.13671875,-345.21484375,-62.5,NaN
1731725533854.2188,-77.1484375,702.1484375,449.70703125,-84.9609375,NaN
1731725533858.125,-125.48828125,-208.0078125,-362.79296875,-88.37890625,NaN
1731725533862.0312,-145.99609375,-557.12890625,-781.73828125,-135.7421875,NaN
1731725533865.9375,-100.09765625,126.46484375,-239.2578125,-103.02734375,NaN
1731725533869.8438,-83.49609375,392.578125,126.953125,-65.91796875,NaN
1731725533873.75,-99.609375,195.3125,-10.7421875,-73.2421875,NaN
1731725533877.6562,-100.09765625,-537.59765625,-759.765625,-83.49609375,NaN
1731725533881.5625,-104.4921875,-477.5390625,-717.28515625,-93.75,NaN
1731725533885.4688,-103.02734375,225.5859375,36.62109375,-67.3828125,NaN
1731725533889.375,-99.12109375,-322.265625,-361.81640625,-64.94140625,NaN
1731725533893.2812,-111.81640625,-592.7734375,-763.18359375,-103.02734375,NaN
1731725533897.1875,-111.328125,51.7578125,-302.734375,-92.7734375,NaN
1731725533901.0938,-53.7109375,111.328125,-70.3125,-31.25,NaN
1731725533905,-29.78515625,-43.45703125,-26.3671875,-38.57421875,NaN
1731725533908.9062,-68.84765625,92.7734375,-26.85546875,-67.3828125,NaN
1731725533912.8125,-113.76953125,226.5625,-93.26171875,-104.98046875,NaN
1731725533916.7188,-99.12109375,96.6796875,-96.19140625,-116.69921875,NaN
1731725533920.625,-82.51953125,-15.13671875,-15.625,-66.40625,NaN
1731725533924.5312,-121.58203125,-21.484375,-93.75,-39.55078125,NaN
1731725533928.4375,-107.91015625,-195.80078125,-384.765625,-59.08203125,NaN
1731725533932.3438,-63.96484375,-403.3203125,-509.765625,-67.87109375,NaN
1731725533936.25,-54.6875,-347.16796875,-278.80859375,-44.43359375,NaN
1731725533940.1562,-68.84765625,362.79296875,261.71875,-86.9140625,NaN
1731725533944.0625,-67.3828125,150.390625,-154.78515625,-115.234375,NaN
1731725533947.9688,-50.78125,-275.87890625,-542.48046875,-71.77734375,NaN
1731725533951.875,-0.9765625,168.9453125,-7.32421875,-68.359375,NaN
1731725533955.7812,-28.3203125,426.26953125,233.3984375,-96.6796875,NaN
1731725533959.6875,-115.72265625,-184.5703125,-410.64453125,-104.98046875,NaN
1731725533963.5938,-82.03125,-722.16796875,-875.48828125,-93.75,NaN
1731725533967.5,-53.22265625,-342.7734375,-455.56640625,-63.96484375,NaN
1731725533971.4062,-44.921875,31.73828125,-27.83203125,-44.43359375,NaN
1731725533975.3125,-91.30859375,-278.80859375,-357.421875,-91.796875,NaN
1731725533979.2188,-104.98046875,-821.2890625,-903.80859375,-115.72265625,NaN
1731725533983.125,-68.84765625,-438.4765625,-552.734375,-79.1015625,NaN
1731725533987.0312,-72.265625,479.00390625,274.90234375,-76.171875,NaN
1731725533990.9375,-74.70703125,189.453125,42.96875,-104.98046875,NaN
1731725533994.8438,-84.47265625,-335.9375,-514.16015625,-104.98046875,NaN
1731725533998.75,-73.73046875,58.59375,-190.91796875,-75.1953125,NaN
1731725534002.6562,-74.21875,612.3046875,422.36328125,-77.63671875,NaN
1731725534006.5625,-88.37890625,205.078125,120.60546875,-99.12109375,NaN
1731725534010.4688,-48.828125,-342.28515625,-505.37109375,-104.98046875,NaN
1731725534014.375,-14.6484375,-37.59765625,-325.1953125,-100.09765625,NaN
1731725534018.2812,-51.26953125,201.66015625,47.36328125,-73.73046875,NaN
1731725534022.1875,-65.4296875,-270.5078125,-289.55078125,-88.8671875,NaN
1731725534026.0938,-64.94140625,-1000,-1000,-105.95703125,NaN
1731725534030,-70.3125,-688.96484375,-920.41015625,-104.4921875,NaN
1731725534033.9062,-73.2421875,23.92578125,-272.4609375,-92.7734375,NaN
1731725534037.8125,-76.171875,-19.53125,-147.4609375,-68.359375,NaN
1731725534041.7188,-84.9609375,-186.5234375,-395.01953125,-100.09765625,NaN
1731725534045.625,-64.453125,-163.0859375,-564.453125,-100.09765625,NaN
1731725534049.5312,-23.4375,-109.375,-479.00390625,-57.6171875,NaN
1731725534053.4375,-40.0390625,-18.5546875,-209.47265625,-62.98828125,NaN
1731725534057.3438,-65.91796875,-1.46484375,-221.6796875,-92.28515625,NaN
1731725534061.25,-80.078125,-211.9140625,-571.77734375,-104.4921875,NaN
1731725534065.1562,-43.45703125,-534.1796875,-807.12890625,-57.12890625,NaN
1731725534069.0625,-5.37109375,-770.99609375,-838.8671875,-18.5546875,NaN
1731725534072.9688,-48.33984375,-374.0234375,-503.90625,-47.8515625,NaN
1731725534076.875,-17.578125,-162.109375,-451.171875,-42.96875,NaN
1731725534080.7812,-59.08203125,-454.1015625,-755.859375,-40.52734375,NaN
1731725534084.6875,-109.375,-546.38671875,-690.4296875,-65.91796875,NaN
1731725534088.5938,-110.3515625,-0.9765625,-129.39453125,-68.84765625,NaN
1731725534092.5,-92.28515625,101.07421875,-213.37890625,-75.1953125,NaN
1731725534096.4062,-103.515625,-428.22265625,-747.55859375,-77.63671875,NaN
1731725534100.3125,-128.41796875,-160.15625,-354.4921875,-51.7578125,NaN
1731725534104.2188,-110.3515625,466.30859375,280.76171875,-46.875,NaN
1731725534108.125,-124.51171875,580.078125,299.31640625,-80.078125,NaN
1731725534112.0312,-103.02734375,-386.23046875,-577.63671875,-84.47265625,NaN
1731725534115.9375,-62.98828125,-632.8125,-691.40625,-26.3671875,NaN
1731725534119.8438,-66.89453125,545.41015625,386.71875,-29.78515625,NaN
1731725534123.75,-96.19140625,700.1953125,483.3984375,-54.6875,NaN
1731725534127.6562,-95.703125,-24.4140625,-244.140625,-47.8515625,NaN
1731725534131.5625,-50.78125,-186.5234375,-372.0703125,-78.125,NaN
1731725534135.4688,-39.0625,284.66796875,167.48046875,-66.89453125,NaN
1731725534139.375,-46.38671875,560.05859375,414.0625,-78.125,NaN
1731725534143.2812,-62.01171875,-153.3203125,-292.96875,-106.4453125,NaN
1731725534147.1875,-30.2734375,-445.3125,-604.00390625,-86.42578125,NaN
1731725534151.0938,-9.27734375,368.1640625,162.109375,-54.19921875,NaN
1731725534155,-65.4296875,599.12109375,477.05078125,-44.43359375,NaN
1731725534158.9062,-72.265625,-145.5078125,-196.77734375,-63.4765625,NaN
1731725534162.8125,-49.31640625,-557.6171875,-684.5703125,-98.14453125,NaN
1731725534166.7188,-114.2578125,25.87890625,-148.4375,-62.98828125,NaN
1731725534170.625,-117.67578125,496.58203125,425.29296875,-52.734375,NaN
1731725534174.5312,-131.34765625,-132.32421875,-112.79296875,-84.47265625,NaN
1731725534178.4375,-151.3671875,-473.14453125,-586.42578125,-100.5859375,NaN
1731725534182.3438,-184.5703125,82.03125,-146.97265625,-94.7265625,NaN
1731725534186.25,-212.40234375,276.3671875,218.75,-56.640625,NaN
1731725534190.1562,-231.4453125,-229.00390625,-160.15625,-76.171875,NaN
1731725534194.0625,-247.55859375,-511.23046875,-573.2421875,-110.3515625,NaN
1731725534197.9688,-214.35546875,-9.27734375,-222.16796875,-96.6796875,NaN
1731725534201.875,-229.00390625,88.37890625,74.21875,-74.70703125,NaN
1731725534205.7812,-266.11328125,-490.72265625,-284.66796875,-66.40625,NaN
1731725534209.6875,-248.53515625,-520.99609375,-473.6328125,-105.46875,NaN
1731725534213.5938,-186.03515625,-124.51171875,-307.12890625,-102.05078125,NaN
1731725534217.5,-142.08984375,-268.5546875,-293.45703125,-63.96484375,NaN
1731725534221.4062,-99.609375,-567.3828125,-375.9765625,-111.81640625,NaN
1731725534225.3125,-85.44921875,2.44140625,-60.05859375,-115.234375,NaN
1731725534229.2188,-116.69921875,-75.68359375,-315.4296875,-87.40234375,NaN
1731725534233.125,-144.53125,-177.734375,-312.01171875,-100.09765625,NaN
1731725534237.0312,-139.16015625,309.08203125,277.34375,-105.46875,NaN
1731725534240.9375,-138.18359375,329.58984375,224.12109375,-140.13671875,NaN
1731725534244.8438,-129.39453125,-183.59375,-379.39453125,-147.94921875,NaN
1731725534248.75,-120.1171875,-470.21484375,-565.91796875,-86.42578125,NaN
1731725534252.6562,-102.05078125,-322.265625,-210.44921875,-87.40234375,NaN
1731725534256.5625,-103.515625,0.9765625,95.21484375,-158.203125,NaN
1731725534260.4688,-128.41796875,-121.58203125,-196.77734375,-138.671875,NaN
1731725534264.375,-124.51171875,-899.90234375,-941.89453125,-145.99609375,NaN
1731725534268.2812,-100.5859375,-352.05078125,-336.42578125,-155.76171875,NaN
1731725534272.1875,-73.2421875,742.67578125,743.65234375,-147.94921875,NaN
1731725534276.0938,-64.94140625,261.71875,242.67578125,-165.52734375,NaN
1731725534280,-49.31640625,-188.4765625,-235.83984375,-150.87890625,NaN
1731725534283.9062,-80.56640625,354.4921875,321.77734375,-138.18359375,NaN
1731725534287.8125,-159.66796875,891.11328125,906.25,-163.0859375,NaN
1731725534291.7188,-208.49609375,333.0078125,376.46484375,-183.59375,NaN
1731725534295.625,-210.44921875,-264.16015625,-261.23046875,-178.7109375,NaN
1731725534299.5312,-168.45703125,-9.765625,19.04296875,-137.6953125,NaN
1731725534303.4375,-124.0234375,341.30859375,516.11328125,-128.41796875,NaN
1731725534307.3438,-136.23046875,-193.359375,57.12890625,-179.6875,NaN
1731725534311.25,-164.0625,-703.61328125,-596.19140625,-220.703125,NaN
1731725534315.1562,-179.6875,-73.2421875,-105.46875,-206.54296875,NaN
1731725534319.0625,-148.4375,683.59375,716.796875,-163.57421875,NaN
1731725534322.9688,-198.73046875,225.09765625,456.0546875,-189.453125,NaN
1731725534326.875,-275.87890625,-333.0078125,-140.13671875,-231.93359375,NaN
1731725534330.7812,-229.98046875,344.23828125,286.62109375,-200.68359375,NaN
1731725534334.6875,-202.63671875,746.09375,749.0234375,-191.89453125,NaN
1731725534338.5938,-207.51953125,780.76171875,915.0390625,-249.51171875,NaN
1731725534342.5,-212.890625,590.8203125,631.34765625,-283.69140625,NaN
1731725534346.4062,-171.38671875,72.75390625,70.80078125,-258.7890625,NaN
1731725534350.3125,-130.859375,70.3125,165.52734375,-203.125,NaN
1731725534354.2188,-156.25,-41.9921875,236.328125,-172.36328125,NaN
1731725534358.125,-179.19921875,-55.6640625,119.140625,-218.26171875,NaN
1731725534362.0312,-206.54296875,151.85546875,52.24609375,-288.0859375,NaN
1731725534365.9375,-208.984375,-158.203125,-165.0390625,-265.625,NaN
1731725534369.8438,-198.73046875,134.765625,271.484375,-231.93359375,NaN
1731725534373.75,-211.9140625,474.12109375,503.90625,-238.28125,NaN
1731725534377.6562,-205.078125,385.25390625,212.40234375,-259.27734375,NaN
1731725534381.5625,-183.10546875,14.6484375,-118.1640625,-199.21875,NaN
1731725534385.4688,-179.19921875,84.47265625,83.984375,-166.015625,NaN
1731725534389.375,-210.9375,501.953125,466.30859375,-217.28515625,NaN
1731725534393.2812,-271.484375,-3.41796875,-84.9609375,-257.8125,NaN
1731725534397.1875,-235.83984375,-807.6171875,-844.23828125,-257.32421875,NaN
1731725534401.0938,-189.453125,-615.72265625,-590.33203125,-188.96484375,NaN
1731725534405,-203.61328125,255.37109375,241.2109375,-195.3125,NaN
1731725534408.9062,-224.609375,152.83203125,13.18359375,-227.05078125,NaN
1731725534412.8125,-307.12890625,-580.078125,-730.95703125,-214.35546875,NaN
1731725534416.7188,-339.35546875,-550.29296875,-591.30859375,-202.63671875,NaN
1731725534420.625,-376.46484375,36.1328125,69.82421875,-214.84375,NaN
1731725534424.5312,-445.3125,134.765625,92.28515625,-239.74609375,NaN
1731725534428.4375,-409.1796875,-633.7890625,-709.47265625,-234.375,NaN
1731725534432.3438,-329.58984375,-683.10546875,-736.328125,-192.3828125,NaN
1731725534436.25,-264.16015625,255.37109375,207.51953125,-166.9921875,NaN
1731725534440.1562,-276.3671875,-51.7578125,-20.5078125,-201.171875,NaN
1731725534444.0625,-292.48046875,-901.3671875,-877.44140625,-216.30859375,NaN
1731725534447.9688,-217.7734375,-729.98046875,-836.9140625,-203.61328125,NaN
1731725534451.875,-163.57421875,283.203125,114.2578125,-177.734375,NaN
1731725534455.7812,-198.73046875,438.4765625,381.8359375,-173.828125,NaN
1731725534459.6875,-227.5390625,-149.4140625,-251.46484375,-202.63671875,NaN
1731725534463.5938,-192.87109375,-377.9296875,-638.18359375,-175.29296875,NaN
1731725534467.5,-166.9921875,-119.62890625,-350.09765625,-139.16015625,NaN
1731725534471.4062,-192.87109375,-17.578125,-104.00390625,-137.20703125,NaN
1731725534475.3125,-202.1484375,-433.59375,-498.046875,-160.64453125,NaN
1731725534479.2188,-215.33203125,-661.1328125,-844.23828125,-175.78125,NaN
1731725534483.125,-188.4765625,-283.69140625,-514.16015625,-144.53125,NaN
1731725534487.0312,-148.92578125,-368.1640625,-388.671875,-122.55859375,NaN
1731725534490.9375,-162.109375,-811.5234375,-787.109375,-142.08984375,NaN
1731725534494.8438,-134.765625,-503.41796875,-734.375,-159.1796875,NaN
1731725534498.75,-80.078125,-100.09765625,-416.9921875,-100.5859375,NaN
1731725534502.6562,-169.43359375,-355.95703125,-412.59765625,-59.5703125,NaN
1731725534506.5625,-244.140625,-691.40625,-654.296875,-113.76953125,NaN
1731725534510.4688,-208.984375,-396.484375,-635.7421875,-134.27734375,NaN
1731725534514.375,-149.90234375,-471.6796875,-794.921875,-98.6328125,NaN
1731725534518.2812,-136.71875,-377.44140625,-550.29296875,-79.58984375,NaN
1731725534522.1875,-150.87890625,-15.13671875,-139.6484375,-89.84375,NaN
1731725534526.0938,-159.66796875,-62.01171875,-335.9375,-124.51171875,NaN
1731725534530,-136.71875,-543.45703125,-871.58203125,-108.88671875,NaN
1731725534533.9062,-115.72265625,-817.87109375,-932.6171875,-62.98828125,NaN
1731725534537.8125,-125.9765625,-779.78515625,-706.54296875,-64.453125,NaN
1731725534541.7188,-167.48046875,-695.3125,-807.12890625,-86.9140625,NaN
1731725534545.625,-216.30859375,-830.56640625,-1000,-72.265625,NaN
1731725534549.5312,-306.640625,-982.421875,-1000,-30.76171875,NaN
1731725534553.4375,-427.734375,-295.41015625,-373.046875,-28.80859375,NaN
1731725534557.3438,-466.30859375,73.2421875,-171.875,-61.5234375,NaN
1731725534561.25,-428.7109375,-694.82421875,-858.88671875,-75.1953125,NaN
1731725534565.1562,-431.640625,-884.765625,-942.87109375,-47.8515625,NaN
1731725534569.0625,-425.78125,-262.20703125,-439.94140625,-29.78515625,NaN
1731725534572.9688,-351.07421875,-214.35546875,-472.65625,-33.69140625,NaN
1731725534576.875,-371.09375,-762.20703125,-932.12890625,-33.69140625,NaN
1731725534580.7812,-393.06640625,-1000,-1000,-38.0859375,NaN
1731725534584.6875,-361.81640625,-808.10546875,-852.05078125,-26.85546875,NaN
1731725534588.5938,-340.8203125,-186.03515625,-385.7421875,-33.69140625,NaN
1731725534592.5,-344.7265625,-513.671875,-632.8125,-44.43359375,NaN
1731725534596.4062,-376.953125,-1000,-1000,-36.1328125,NaN
1731725534600.3125,-386.23046875,-437.98828125,-642.08984375,-30.2734375,NaN
1731725534604.2188,-356.93359375,184.08203125,-100.5859375,-37.59765625,NaN
1731725534608.125,-315.4296875,-418.45703125,-622.0703125,-51.26953125,NaN
1731725534612.0312,-279.78515625,-833.49609375,-1000,-34.1796875,NaN
1731725534615.9375,-219.23828125,-553.22265625,-905.2734375,-38.57421875,NaN
1731725534619.8438,-197.265625,-183.59375,-498.046875,-35.15625,NaN
1731725534623.75,-240.234375,-423.33984375,-646.484375,-30.2734375,NaN
1731725534627.6562,-186.03515625,-981.4453125,-1000,-42.48046875,NaN
1731725534631.5625,-138.671875,-1000,-1000,-35.64453125,NaN
1731725534635.4688,-147.94921875,-455.56640625,-664.0625,-13.18359375,NaN
1731725534639.375,-125.9765625,-610.83984375,-717.7734375,-2.9296875,NaN
1731725534643.2812,-185.546875,-925.78125,-1000,-31.25,NaN
1731725534647.1875,-187.98828125,-756.8359375,-995.1171875,-26.3671875,NaN
1731725534651.0938,-104.98046875,-760.25390625,-900.390625,4.8828125,NaN
1731725534655,-87.40234375,-526.3671875,-701.66015625,13.18359375,NaN
1731725534658.9062,-73.2421875,-368.1640625,-725.09765625,-10.25390625,NaN
1731725534662.8125,-22.94921875,-508.30078125,-979.00390625,4.8828125,NaN
1731725534666.7188,9.765625,-499.0234375,-870.1171875,35.15625,NaN
1731725534670.625,14.6484375,-349.12109375,-643.5546875,15.625,NaN
1731725534674.5312,23.4375,-713.37890625,-873.046875,21.97265625,NaN
1731725534678.4375,37.59765625,-991.69921875,-1000,12.6953125,NaN
1731725534682.3438,66.89453125,-979.00390625,-1000,27.34375,NaN
1731725534686.25,36.1328125,-720.703125,-800.78125,37.109375,NaN
1731725534690.1562,-12.20703125,-58.10546875,-366.69921875,-5.37109375,NaN
1731725534694.0625,-31.25,-199.70703125,-711.42578125,-18.06640625,NaN
1731725534697.9688,28.3203125,-738.28125,-1000,3.90625,NaN
1731725534701.875,64.453125,-271.97265625,-499.0234375,36.1328125,NaN
1731725534705.7812,0.9765625,9.765625,-323.2421875,38.0859375,NaN
1731725534709.6875,55.17578125,-532.2265625,-899.4140625,-26.85546875,NaN
1731725534713.5938,54.6875,-820.3125,-1000,-24.4140625,NaN
1731725534717.5,-19.53125,-530.76171875,-731.93359375,25.87890625,NaN
1731725534721.4062,-18.06640625,-269.04296875,-554.6875,17.08984375,NaN
1731725534725.3125,-16.6015625,-684.08203125,-839.35546875,-10.7421875,NaN
1731725534729.2188,5.37109375,-1000,-1000,-8.30078125,NaN
1731725534733.125,16.11328125,-623.046875,-768.06640625,3.41796875,NaN
1731725534737.0312,19.04296875,328.125,-51.7578125,-23.4375,NaN
1731725534740.9375,26.85546875,-94.7265625,-391.11328125,-25.87890625,NaN
1731725534744.8438,23.4375,-880.37109375,-1000,-3.90625,NaN
1731725534748.75,48.828125,-504.39453125,-886.23046875,11.23046875,NaN
1731725534752.6562,60.05859375,51.7578125,-380.859375,31.25,NaN
1731725534756.5625,31.25,-270.99609375,-523.4375,14.6484375,NaN
1731725534760.4688,4.8828125,-965.8203125,-1000,-24.4140625,NaN
1731725534764.375,45.41015625,-1000,-1000,-1.953125,NaN
1731725534768.2812,75.1953125,-810.05859375,-924.31640625,6.34765625,NaN
1731725534772.1875,20.5078125,-785.15625,-911.62109375,-8.30078125,NaN
1731725534776.0938,-61.5234375,-1000,-989.74609375,-2.9296875,NaN
1731725534780,-41.50390625,-874.51171875,-1000,-1.953125,NaN
1731725534783.9062,-52.24609375,-325.68359375,-751.46484375,15.13671875,NaN
1731725534787.8125,-127.9296875,-254.8828125,-557.12890625,3.90625,NaN
1731725534791.7188,-104.00390625,-525.390625,-869.140625,-12.20703125,NaN
1731725534795.625,-71.77734375,-549.8046875,-1000,-7.8125,NaN
1731725534799.5312,-47.36328125,-537.109375,-966.30859375,10.7421875,NaN
1731725534803.4375,-59.5703125,-391.6015625,-696.2890625,28.3203125,NaN
1731725534807.3438,-107.91015625,-366.2109375,-749.0234375,-19.04296875,NaN
1731725534811.25,-130.37109375,-725.09765625,-1000,-25.390625,NaN
1731725534815.1562,-119.62890625,-995.1171875,-1000,18.5546875,NaN
1731725534819.0625,-110.3515625,-1000,-1000,33.203125,NaN
1731725534822.9688,-108.3984375,-777.34375,-949.70703125,25.390625,NaN
1731725534826.875,-93.26171875,-744.62890625,-957.51953125,-2.9296875,NaN
1731725534830.7812,-67.3828125,-1000,-1000,9.765625,NaN
1731725534834.6875,-28.80859375,-1000,-999.51171875,39.0625,NaN
1731725534838.5938,-44.921875,-766.11328125,-981.93359375,15.625,NaN
1731725534842.5,-82.03125,-744.140625,-974.609375,-16.6015625,NaN
1731725534846.4062,-48.33984375,-1000,-1000,-5.859375,NaN
1731725534850.3125,-32.2265625,-811.03515625,-942.3828125,16.11328125,NaN
1731725534854.2188,-37.109375,-246.09375,-570.80078125,19.04296875,NaN
1731725534858.125,-82.51953125,-150.87890625,-559.08203125,-8.30078125,NaN
1731725534862.0312,-85.44921875,-794.921875,-1000,10.7421875,NaN
1731725534865.9375,-54.6875,-729.98046875,-821.2890625,39.55078125,NaN
1731725534869.8438,-109.375,125.48828125,-166.50390625,15.13671875,NaN
1731725534873.75,-113.76953125,233.3984375,-186.03515625,-12.6953125,NaN
1731725534877.6562,-84.47265625,-553.22265625,-801.7578125,-14.6484375,NaN
1731725534881.5625,-101.5625,-716.796875,-843.26171875,7.32421875,NaN
1731725534885.4688,-103.02734375,315.4296875,-12.20703125,16.6015625,NaN
1731725534889.375,-62.5,418.45703125,66.89453125,11.23046875,NaN
1731725534893.2812,-5.859375,-538.0859375,-752.9296875,-5.37109375,NaN
1731725534897.1875,-2.44140625,-737.79296875,-993.65234375,-15.13671875,NaN
1731725534901.0938,-15.13671875,62.5,-319.82421875,7.8125,NaN
1731725534905,19.53125,178.7109375,-151.3671875,17.08984375,NaN
1731725534908.9062,6.34765625,-652.34375,-794.43359375,-5.37109375,NaN
1731725534912.8125,0,-1000,-1000,-3.90625,NaN
1731725534916.7188,-6.34765625,-392.08984375,-692.87109375,16.6015625,NaN
1731725534920.625,-14.6484375,-58.10546875,-355.95703125,13.18359375,NaN
1731725534924.5312,-15.13671875,-736.81640625,-823.73046875,-20.99609375,NaN
1731725534928.4375,-6.34765625,-940.4296875,-1000,-40.0390625,NaN
1731725534932.3438,53.7109375,-468.75,-843.75,1.46484375,NaN
1731725534936.25,68.359375,-457.51953125,-674.31640625,12.6953125,NaN
1731725534940.1562,68.359375,-767.08984375,-896.97265625,-17.578125,NaN
1731725534944.0625,66.40625,-768.5546875,-1000,-36.62109375,NaN
1731725534947.9688,76.171875,-650.87890625,-964.84375,-11.71875,NaN
1731725534951.875,112.3046875,-639.16015625,-895.5078125,9.27734375,NaN
1731725534955.7812,121.09375,-943.359375,-977.5390625,-9.27734375,NaN
1731725534959.6875,80.56640625,-1000,-1000,-18.06640625,NaN
1731725534963.5938,79.1015625,-672.8515625,-936.5234375,-12.20703125,NaN
1731725534967.5,115.72265625,-716.796875,-963.8671875,20.01953125,NaN
1731725534971.4062,129.8828125,-843.26171875,-871.58203125,23.92578125,NaN
1731725534975.3125,135.7421875,-426.7578125,-735.3515625,-14.16015625,NaN
1731725534979.2188,125.9765625,-644.04296875,-1000,-15.625,NaN
1731725534983.125,167.96875,-797.8515625,-955.56640625,0.48828125,NaN
1731725534987.0312,167.96875,-320.3125,-519.53125,2.9296875,NaN
1731725534990.9375,110.3515625,-496.58203125,-698.73046875,15.625,NaN
1731725534994.8438,90.8203125,-1000,-1000,-4.8828125,NaN
1731725534998.75,52.734375,-973.14453125,-996.09375,-11.23046875,NaN
1731725535002.6562,53.7109375,-848.14453125,-926.7578125,9.765625,NaN
1731725535006.5625,30.2734375,-551.26953125,-741.2109375,-13.671875,NaN
1731725535010.4688,36.1328125,-540.0390625,-817.87109375,-40.52734375,NaN
1731725535014.375,65.4296875,-956.54296875,-1000,7.32421875,NaN
1731725535018.2812,61.03515625,-423.33984375,-590.33203125,38.57421875,NaN
1731725535022.1875,53.22265625,214.84375,-145.5078125,16.6015625,NaN
1731725535026.0938,25.87890625,-378.41796875,-646.484375,-17.08984375,NaN
1731725535030,37.59765625,-886.71875,-1000,-19.04296875,NaN
1731725535033.9062,22.94921875,-330.56640625,-658.69140625,10.7421875,NaN
1731725535037.8125,-32.71484375,181.640625,-164.0625,7.8125,NaN
1731725535041.7188,-46.875,-271.484375,-509.27734375,-18.06640625,NaN
1731725535045.625,-46.875,-857.421875,-1000,-1.46484375,NaN
1731725535049.5312,-23.4375,-639.16015625,-917.48046875,22.4609375,NaN
1731725535053.4375,-18.5546875,-188.4765625,-389.6484375,14.6484375,NaN
1731725535057.3438,-94.23828125,-479.98046875,-533.69140625,-9.765625,NaN
1731725535061.25,-144.53125,-916.50390625,-1000,-41.50390625,NaN
1731725535065.1562,-87.890625,-319.82421875,-663.57421875,-20.5078125,NaN
1731725535069.0625,-65.91796875,330.56640625,-31.25,-4.8828125,NaN
1731725535072.9688,-83.49609375,-216.796875,-357.421875,-1.953125,NaN
1731725535076.875,-88.8671875,-810.546875,-983.88671875,-2.44140625,NaN
1731725535080.7812,-42.96875,-316.40625,-775.87890625,7.8125,NaN
1731725535084.6875,-5.859375,53.22265625,-302.24609375,6.34765625,NaN
1731725535088.5938,-21.484375,193.359375,-30.76171875,-34.66796875,NaN
1731725535092.5,-28.3203125,24.4140625,-322.265625,-46.875,NaN
1731725535096.4062,-6.8359375,-448.73046875,-833.49609375,-15.13671875,NaN
1731725535100.3125,3.41796875,-463.8671875,-725.5859375,7.8125,NaN
1731725535104.2188,20.01953125,-619.140625,-681.640625,22.4609375,NaN
1731725535108.125,72.265625,-906.25,-993.65234375,8.7890625,NaN
1731725535112.0312,20.5078125,-579.58984375,-958.984375,-24.90234375,NaN
1731725535115.9375,-1.46484375,-464.84375,-814.94140625,-4.8828125,NaN
1731725535119.8438,18.5546875,-355.95703125,-476.5625,-9.765625,NaN
1731725535123.75,-15.625,-50.29296875,-232.91015625,-13.18359375,NaN
1731725535127.6562,19.04296875,-101.07421875,-496.58203125,-33.203125,NaN
1731725535131.5625,35.15625,-509.27734375,-849.609375,-21.97265625,NaN
1731725535135.4688,23.92578125,-276.3671875,-449.21875,25.390625,NaN
1731725535139.375,-3.90625,-8.7890625,-220.21484375,5.37109375,NaN
1731725535143.2812,-72.265625,-709.47265625,-839.35546875,-42.48046875,NaN
1731725535147.1875,-51.7578125,-1000,-1000,-42.96875,NaN
1731725535151.0938,-27.83203125,-672.8515625,-724.12109375,7.32421875,NaN
1731725535155,-42.96875,100.5859375,-62.98828125,-7.32421875,NaN
1731725535158.9062,-31.73828125,-36.1328125,-337.40234375,-41.9921875,NaN
1731725535162.8125,-20.5078125,-828.61328125,-1000,-33.203125,NaN
1731725535166.7188,15.13671875,-642.08984375,-705.078125,4.8828125,NaN
1731725535170.625,13.18359375,245.1171875,62.01171875,20.01953125,NaN
1731725535174.5312,25.87890625,41.015625,-222.65625,11.23046875,NaN
1731725535178.4375,26.85546875,-827.63671875,-985.83984375,-10.25390625,NaN
1731725535182.3438,7.32421875,-654.296875,-800.78125,-22.94921875,NaN
1731725535186.25,17.578125,-10.25390625,-259.765625,-32.2265625,NaN
1731725535190.1562,-6.34765625,-579.58984375,-689.453125,-39.55078125,NaN
1731725535194.0625,4.39453125,-1000,-1000,-40.0390625,NaN
1731725535197.9688,49.8046875,-974.12109375,-1000,-22.94921875,NaN
1731725535201.875,81.54296875,-519.53125,-726.5625,8.30078125,NaN
1731725535205.7812,59.08203125,-244.140625,-444.3359375,11.71875,NaN
1731725535209.6875,39.0625,-833.0078125,-887.20703125,-42.48046875,NaN
1731725535213.5938,47.8515625,-1000,-1000,-22.94921875,NaN
1731725535217.5,31.25,-563.96484375,-795.41015625,40.0390625,NaN
1731725535221.4062,1.953125,-568.359375,-699.21875,-0.48828125,NaN
1731725535225.3125,1.953125,-991.2109375,-983.88671875,-26.85546875,NaN
1731725535229.2188,-15.13671875,-879.8828125,-1000,-23.4375,NaN
1731725535233.125,-13.18359375,-351.5625,-670.41015625,-19.04296875,NaN
1731725535237.0312,5.859375,-380.859375,-447.75390625,-1.953125,NaN
1731725535240.9375,-27.34375,-868.1640625,-912.109375,-14.16015625,NaN
1731725535244.8438,-38.57421875,-792.48046875,-1000,-23.4375,NaN
1731725535248.75,9.765625,-432.6171875,-774.4140625,-13.18359375,NaN
1731725535252.6562,15.625,-347.16796875,-518.06640625,-5.37109375,NaN
1731725535256.5625,-15.13671875,-541.50390625,-649.4140625,-34.66796875,NaN
1731725535260.4688,-1.46484375,-607.91015625,-888.671875,-65.91796875,NaN
1731725535264.375,16.11328125,-527.34375,-898.92578125,-40.0390625,NaN
1731725535268.2812,54.6875,-411.1328125,-633.7890625,-4.8828125,NaN
1731725535272.1875,24.90234375,-98.6328125,-288.57421875,5.859375,NaN
1731725535276.0938,-54.19921875,-320.3125,-598.6328125,-36.62109375,NaN
1731725535280,-41.50390625,-931.15234375,-1000,-36.1328125,NaN
1731725535283.9062,-2.9296875,-1000,-1000,8.30078125,NaN
1731725535287.8125,3.41796875,-813.4765625,-874.0234375,3.90625,NaN
1731725535291.7188,-38.57421875,-467.28515625,-719.7265625,-38.0859375,NaN
1731725535295.625,-26.3671875,-597.16796875,-910.15625,-52.24609375,NaN
1731725535299.5312,17.578125,-759.765625,-920.41015625,-24.90234375,NaN
1731725535303.4375,-16.11328125,-122.55859375,-253.90625,-19.04296875,NaN
1731725535307.3438,-25.390625,73.73046875,-180.17578125,-27.34375,NaN
1731725535311.25,7.32421875,-715.33203125,-916.015625,-43.45703125,NaN
1731725535315.1562,3.90625,-759.765625,-862.3046875,-31.25,NaN
1731725535319.0625,2.9296875,-78.61328125,-306.15234375,-5.37109375,NaN
1731725535322.9688,-35.15625,-145.01953125,-426.26953125,-9.765625,NaN
1731725535326.875,-89.35546875,-695.80078125,-875,-55.17578125,NaN
1731725535330.7812,-62.5,-1000,-1000,-66.89453125,NaN
1731725535334.6875,-24.4140625,-816.89453125,-827.1484375,-23.92578125,NaN
1731725535338.5938,-46.875,-390.625,-508.30078125,-33.69140625,NaN
1731725535342.5,-70.3125,-679.19921875,-778.3203125,-53.7109375,NaN
1731725535346.4062,-39.55078125,-1000,-1000,-20.99609375,NaN
1731725535350.3125,-14.6484375,-483.3984375,-645.5078125,-9.27734375,NaN
1731725535354.2188,-42.96875,82.51953125,-121.58203125,-32.71484375,NaN
1731725535358.125,-59.5703125,-464.84375,-585.44921875,-47.36328125,NaN
1731725535362.0312,-31.25,-861.328125,-1000,-33.203125,NaN
1731725535365.9375,1.953125,-331.0546875,-709.9609375,-23.92578125,NaN
1731725535369.8438,14.6484375,94.7265625,-124.51171875,-22.4609375,NaN
1731725535373.75,8.30078125,-307.12890625,-483.3984375,-30.76171875,NaN
1731725535377.6562,5.37109375,-968.75,-1000,-31.73828125,NaN
1731725535381.5625,-41.015625,-825.1953125,-894.04296875,-1.953125,NaN
1731725535385.4688,-67.3828125,-116.69921875,-323.2421875,-7.8125,NaN
1731725535389.375,-18.5546875,-495.60546875,-558.10546875,-23.4375,NaN
1731725535393.2812,-13.671875,-1000,-1000,-38.57421875,NaN
1731725535397.1875,-9.27734375,-652.34375,-894.04296875,-31.25,NaN
1731725535401.0938,-13.18359375,-220.703125,-509.765625,7.32421875,NaN
1731725535405,-43.9453125,-448.2421875,-512.20703125,3.90625,NaN
1731725535408.9062,-47.8515625,-443.84765625,-672.8515625,-39.0625,NaN
1731725535412.8125,-49.8046875,-469.23828125,-905.2734375,-41.015625,NaN
1731725535416.7188,-56.640625,-556.15234375,-866.69921875,2.9296875,NaN
1731725535420.625,-45.41015625,-294.921875,-485.83984375,1.953125,NaN
1731725535424.5312,-54.19921875,-594.23828125,-706.54296875,-28.3203125,NaN
1731725535428.4375,-68.359375,-913.0859375,-1000,-45.8984375,NaN
1731725535432.3438,-69.82421875,-834.9609375,-1000,-8.30078125,NaN
1731725535436.25,-89.35546875,-752.44140625,-807.12890625,5.859375,NaN
1731725535440.1562,-89.35546875,-231.93359375,-452.63671875,-42.96875,NaN
1731725535444.0625,-75.1953125,-321.77734375,-740.72265625,-30.2734375,NaN
1731725535447.9688,-91.796875,-815.4296875,-1000,-15.13671875,NaN
1731725535451.875,-68.359375,-567.3828125,-641.11328125,-13.18359375,NaN
1731725535455.7812,-71.77734375,-13.671875,-231.93359375,3.41796875,NaN
1731725535459.6875,-102.05078125,-352.5390625,-678.7109375,-16.11328125,NaN
1731725535463.5938,-120.1171875,-898.4375,-1000,-29.296875,NaN
1731725535467.5,-122.0703125,-495.60546875,-626.46484375,0.9765625,NaN
1731725535471.4062,-69.82421875,-222.65625,-363.28125,4.39453125,NaN
1731725535475.3125,-110.3515625,-696.77734375,-801.26953125,-32.71484375,NaN
1731725535479.2188,-204.1015625,-1000,-1000,-17.578125,NaN
1731725535483.125,-182.6171875,-708.0078125,-805.6640625,28.3203125,NaN
1731725535487.0312,-148.4375,72.265625,-166.50390625,26.3671875,NaN
1731725535490.9375,-137.6953125,-191.89453125,-397.4609375,-13.18359375,NaN
1731725535494.8438,-110.83984375,-808.10546875,-1000,-19.04296875,NaN
1731725535498.75,-168.45703125,-531.25,-859.375,9.765625,NaN
1731725535502.6562,-277.83203125,0.9765625,-282.71484375,7.8125,NaN
1731725535506.5625,-345.703125,-232.421875,-366.69921875,-24.4140625,NaN
1731725535510.4688,-375,-877.44140625,-994.140625,-38.57421875,NaN
1731725535514.375,-399.4140625,-657.71484375,-968.75,-20.99609375,NaN
1731725535518.2812,-481.93359375,-429.6875,-643.5546875,-9.27734375,NaN
1731725535522.1875,-550.78125,-653.3203125,-670.8984375,-21.484375,NaN
1731725535526.0938,-611.328125,-992.1875,-1000,-22.4609375,NaN
1731725535530,-628.41796875,-701.171875,-957.03125,-25.390625,NaN
1731725535533.9062,-599.12109375,-61.5234375,-394.04296875,-25.87890625,NaN
1731725535537.8125,-613.76953125,-104.98046875,-254.8828125,-19.04296875,NaN
1731725535541.7188,-623.046875,-472.65625,-694.3359375,-39.55078125,NaN
1731725535545.625,-609.375,-635.25390625,-980.95703125,-55.17578125,NaN
1731725535549.5312,-592.28515625,-563.4765625,-878.90625,-30.2734375,NaN
1731725535553.4375,-552.734375,-299.8046875,-469.7265625,-12.20703125,NaN
1731725535557.3438,-514.16015625,-361.328125,-588.8671875,-22.4609375,NaN
1731725535561.25,-542.96875,-709.47265625,-1000,-40.52734375,NaN
1731725535565.1562,-560.546875,-827.1484375,-965.33203125,-8.30078125,NaN
1731725535569.0625,-500.9765625,-908.203125,-953.61328125,23.92578125,NaN
1731725535572.9688,-457.51953125,-821.2890625,-889.6484375,4.8828125,NaN
1731725535576.875,-340.8203125,-472.65625,-808.59375,-27.34375,NaN
1731725535580.7812,-198.2421875,-630.37109375,-1000,-33.203125,NaN
1731725535584.6875,-146.484375,-788.0859375,-918.45703125,-1.46484375,NaN
1731725535588.5938,-103.515625,-280.76171875,-419.43359375,-12.6953125,NaN
1731725535592.5,-49.8046875,-198.2421875,-558.59375,-26.85546875,NaN
1731725535596.4062,-40.52734375,-741.69921875,-1000,-20.5078125,NaN
1731725535600.3125,-45.8984375,-653.80859375,-777.34375,-15.13671875,NaN
1731725535604.2188,-53.22265625,-47.36328125,-234.86328125,-6.8359375,NaN
1731725535608.125,-30.2734375,-234.375,-512.20703125,-27.83203125,NaN
1731725535612.0312,-83.0078125,-942.3828125,-1000,-46.875,NaN
1731725535615.9375,-238.76953125,-805.17578125,-859.86328125,-22.4609375,NaN
1731725535619.8438,-328.61328125,-196.77734375,-347.65625,-13.671875,NaN
1731725535623.75,-421.38671875,-156.73828125,-361.81640625,-15.625,NaN
1731725535627.6562,-441.40625,-670.8984375,-829.1015625,-22.4609375,NaN
1731725535631.5625,-258.7890625,-803.7109375,-886.71875,-33.69140625,NaN
1731725535635.4688,-170.41015625,3.90625,-204.58984375,-28.80859375,NaN
1731725535639.375,-171.875,143.06640625,-99.609375,-61.03515625,NaN
1731725535643.2812,-110.83984375,-622.0703125,-775.87890625,-47.36328125,NaN
1731725535647.1875,-51.26953125,-786.62109375,-979.4921875,-30.2734375,NaN
1731725535651.0938,-22.4609375,-213.37890625,-518.5546875,-39.0625,NaN
1731725535655,-41.50390625,-19.04296875,-219.23828125,-30.2734375,NaN
1731725535658.9062,-56.640625,-652.83203125,-699.70703125,-41.9921875,NaN
1731725535662.8125,-46.38671875,-988.28125,-1000,-30.76171875,NaN
1731725535666.7188,-41.015625,-376.953125,-630.859375,13.18359375,NaN
1731725535670.625,-54.6875,-65.4296875,-218.75,9.27734375,NaN
1731725535674.5312,-50.78125,-630.37109375,-690.4296875,-20.01953125,NaN
1731725535678.4375,-15.625,-1000,-1000,-29.296875,NaN
1731725535682.3438,-30.2734375,-740.234375,-846.6796875,-23.92578125,NaN
1731725535686.25,-43.45703125,-307.6171875,-427.734375,-15.625,NaN
1731725535690.1562,-27.34375,-671.38671875,-738.28125,-22.94921875,NaN
1731725535694.0625,-42.48046875,-855.46875,-1000,-38.57421875,NaN
1731725535697.9688,-31.25,-436.03515625,-762.20703125,-8.30078125,NaN
1731725535701.875,1.953125,-126.46484375,-329.1015625,3.41796875,NaN
1731725535705.7812,-30.76171875,-475.09765625,-484.375,-26.85546875,NaN
1731725535709.6875,-56.640625,-816.40625,-957.51953125,-60.546875,NaN
1731725535713.5938,-47.36328125,-417.48046875,-767.08984375,-55.6640625,NaN
1731725535717.5,9.765625,-445.80078125,-633.30078125,-9.765625,NaN
1731725535721.4062,79.1015625,-731.93359375,-752.9296875,-7.8125,NaN
1731725535725.3125,-18.5546875,-155.2734375,-387.6953125,-8.30078125,NaN
1731725535729.2188,-73.2421875,-222.16796875,-591.796875,-10.25390625,NaN
1731725535733.125,-46.38671875,-554.19921875,-801.26953125,-19.04296875,NaN
1731725535737.0312,-94.23828125,-319.3359375,-406.73828125,-16.11328125,NaN
1731725535740.9375,-127.9296875,-45.8984375,-242.67578125,-35.64453125,NaN
1731725535744.8438,-110.3515625,-375,-729.98046875,-32.71484375,NaN
1731725535748.75,-90.8203125,-838.8671875,-1000,-17.08984375,NaN
1731725535752.6562,-116.69921875,-822.75390625,-828.125,-17.578125,NaN
1731725535756.5625,-143.06640625,-428.7109375,-587.890625,-24.4140625,NaN
1731725535760.4688,-108.3984375,-489.2578125,-776.85546875,-34.66796875,NaN
1731725535764.375,-2.9296875,-978.515625,-1000,-11.71875,NaN
1731725535768.2812,93.75,-365.234375,-471.6796875,13.18359375,NaN
1731725535772.1875,134.765625,395.01953125,104.4921875,-5.37109375,NaN
1731725535776.0938,133.7890625,-185.05859375,-498.046875,-20.5078125,NaN
1731725535780,137.6953125,-696.77734375,-995.60546875,-6.8359375,NaN
1731725535783.9062,155.2734375,-182.6171875,-529.78515625,-3.41796875,NaN
1731725535787.8125,148.92578125,286.1328125,-49.31640625,-21.97265625,NaN
1731725535791.7188,142.08984375,-211.9140625,-482.421875,-40.52734375,NaN
1731725535795.625,159.66796875,-1000,-1000,-45.8984375,NaN
1731725535799.5312,180.17578125,-890.13671875,-934.5703125,-25.87890625,NaN
1731725535803.4375,207.03125,-364.74609375,-583.0078125,0.48828125,NaN
1731725535807.3438,193.84765625,-563.96484375,-706.0546875,-18.06640625,NaN
1731725535811.25,159.66796875,-989.74609375,-1000,-49.31640625,NaN
1731725535815.1562,144.53125,-638.671875,-946.77734375,-31.25,NaN
1731725535819.0625,140.13671875,-130.859375,-516.6015625,-5.37109375,NaN
1731725535822.9688,131.8359375,-459.9609375,-600.09765625,-20.5078125,NaN
1731725535826.875,130.37109375,-976.07421875,-1000,-39.0625,NaN
1731725535830.7812,136.71875,-567.87109375,-927.734375,-28.3203125,NaN
1731725535834.6875,134.765625,-63.4765625,-411.62109375,-17.578125,NaN
1731725535838.5938,119.140625,75.68359375,-121.58203125,-23.4375,NaN
1731725535842.5,85.44921875,-215.8203125,-504.39453125,-29.296875,NaN
1731725535846.4062,-35.15625,-873.046875,-1000,11.71875,NaN
1731725535850.3125,-115.72265625,-514.6484375,-567.3828125,26.3671875,NaN
1731725535854.2188,-51.7578125,-471.6796875,-473.14453125,-1.46484375,NaN
1731725535858.125,-7.32421875,-875,-960.44921875,-11.23046875,NaN
1731725535862.0312,22.94921875,-515.625,-906.25,-7.32421875,NaN
1731725535865.9375,41.50390625,-599.609375,-958.984375,-0.9765625,NaN
1731725535869.8438,24.4140625,-376.953125,-571.2890625,5.859375,NaN
1731725535873.75,48.828125,-48.33984375,-322.75390625,0.9765625,NaN
1731725535877.6562,79.1015625,-260.25390625,-702.1484375,-13.18359375,NaN
1731725535881.5625,108.3984375,-545.8984375,-940.91796875,-2.44140625,NaN
1731725535885.4688,123.046875,-333.984375,-570.3125,13.18359375,NaN
1731725535889.375,64.94140625,-25.390625,-340.33203125,-24.4140625,NaN
1731725535893.2812,56.15234375,-577.1484375,-806.15234375,-47.36328125,NaN
1731725535897.1875,57.12890625,-1000,-1000,-30.76171875,NaN
1731725535901.0938,41.50390625,-836.9140625,-887.20703125,-20.01953125,NaN
1731725535905,44.43359375,-359.86328125,-579.1015625,-31.25,NaN
1731725535908.9062,-1.953125,-560.05859375,-787.109375,-51.7578125,NaN
1731725535912.8125,-71.77734375,-1000,-1000,-41.50390625,NaN
1731725535916.7188,-28.3203125,-558.10546875,-695.3125,-18.06640625,NaN
1731725535920.625,-26.3671875,212.890625,-71.2890625,-11.71875,NaN
1731725535924.5312,-91.30859375,-32.2265625,-354.00390625,-1.953125,NaN
1731725535928.4375,-119.140625,-765.625,-1000,-11.71875,NaN
1731725535932.3438,-175.78125,-534.66796875,-781.25,-24.4140625,NaN
1731725535936.25,-133.30078125,252.44140625,-60.546875,-18.06640625,NaN
1731725535940.1562,-92.7734375,-300.78125,-466.30859375,-23.92578125,NaN
1731725535944.0625,-77.63671875,-1000,-1000,-28.80859375,NaN
1731725535947.9688,-69.3359375,-721.19140625,-872.55859375,-9.765625,NaN
1731725535951.875,-73.2421875,158.69140625,-157.71484375,26.85546875,NaN
1731725535955.7812,-16.6015625,179.19921875,-63.4765625,16.11328125,NaN
1731725535959.6875,-4.39453125,-541.015625,-837.40234375,-37.109375,NaN
1731725535963.5938,16.6015625,-642.578125,-989.2578125,-27.34375,NaN
1731725535967.5,50.29296875,-333.0078125,-607.421875,8.30078125,NaN
1731725535971.4062,97.16796875,-267.08984375,-453.125,13.18359375,NaN
1731725535975.3125,105.95703125,-709.9609375,-862.79296875,-6.34765625,NaN
1731725535979.2188,103.515625,-774.90234375,-1000,-34.1796875,NaN
1731725535983.125,108.3984375,-437.98828125,-782.2265625,-9.27734375,NaN
1731725535987.0312,100.09765625,-528.3203125,-640.625,25.390625,NaN
1731725535990.9375,75.1953125,-855.95703125,-924.8046875,0.9765625,NaN
1731725535994.8438,48.828125,-745.60546875,-1000,-43.45703125,NaN
1731725535998.75,87.890625,-521.97265625,-853.515625,-17.08984375,NaN
1731725536002.6562,83.0078125,-388.18359375,-559.08203125,2.44140625,NaN
1731725536006.5625,35.64453125,-369.140625,-513.671875,-43.45703125,NaN
1731725536010.4688,39.0625,-236.81640625,-620.60546875,-40.52734375,NaN
1731725536014.375,20.01953125,-371.58203125,-816.40625,-7.32421875,NaN
1731725536018.2812,22.94921875,-349.12109375,-621.09375,-11.71875,NaN
1731725536022.1875,23.4375,-286.1328125,-452.1484375,-16.6015625,NaN
1731725536026.0938,0.48828125,-707.51953125,-874.51171875,-23.92578125,NaN
1731725536030,-3.90625,-714.84375,-1000,-43.9453125,NaN
1731725536033.9062,14.16015625,-812.98828125,-994.140625,0.48828125,NaN
1731725536037.8125,16.11328125,-809.08203125,-831.0546875,11.71875,NaN
1731725536041.7188,-10.7421875,-355.95703125,-677.24609375,-35.15625,NaN
1731725536045.625,10.7421875,-669.921875,-996.09375,-26.3671875,NaN
1731725536049.5312,66.40625,-741.69921875,-886.23046875,0.48828125,NaN
1731725536053.4375,83.49609375,-113.28125,-291.015625,9.765625,NaN
1731725536057.3438,68.359375,-83.49609375,-367.67578125,-13.671875,NaN
1731725536061.25,72.265625,-608.3984375,-891.11328125,-34.66796875,NaN
1731725536065.1562,120.1171875,-674.8046875,-850.5859375,-11.71875,NaN
1731725536069.0625,154.296875,-14.6484375,-240.72265625,9.27734375,NaN
1731725536072.9688,150.87890625,224.12109375,-70.3125,2.9296875,NaN
1731725536076.875,160.64453125,-442.3828125,-660.15625,-14.6484375,NaN
1731725536080.7812,161.62109375,-1000,-1000,-8.30078125,NaN
1731725536084.6875,158.69140625,-641.11328125,-704.1015625,-9.27734375,NaN
1731725536088.5938,147.4609375,-136.71875,-300.78125,-22.94921875,NaN
1731725536092.5,154.296875,-537.109375,-689.453125,-30.76171875,NaN
1731725536096.4062,176.7578125,-1000,-1000,-19.53125,NaN
1731725536100.3125,187.5,-421.875,-609.86328125,3.90625,NaN
1731725536104.2188,179.19921875,111.328125,-104.4921875,21.484375,NaN
1731725536108.125,146.484375,-272.94921875,-493.65234375,-18.5546875,NaN
1731725536112.0312,151.85546875,-687.5,-1000,-54.6875,NaN
1731725536115.9375,145.01953125,-364.74609375,-730.46875,-17.578125,NaN
1731725536119.8438,116.69921875,80.078125,-168.9453125,19.53125,NaN
1731725536123.75,104.98046875,-287.59765625,-475.5859375,-2.44140625,NaN
1731725536127.6562,116.69921875,-1000,-1000,-24.4140625,NaN
1731725536131.5625,117.1875,-791.50390625,-875,9.27734375,NaN
1731725536135.4688,108.88671875,-175.78125,-394.53125,25.87890625,NaN
1731725536139.375,112.3046875,-673.33984375,-700.68359375,6.8359375,NaN
1731725536143.2812,130.37109375,-953.125,-1000,-22.4609375,NaN
1731725536147.1875,138.671875,-453.61328125,-859.86328125,-6.34765625,NaN
1731725536151.0938,130.859375,-222.16796875,-515.625,20.01953125,NaN
1731725536155,114.74609375,-263.671875,-394.04296875,4.39453125,NaN
1731725536158.9062,112.79296875,-339.84375,-625.9765625,-11.23046875,NaN
1731725536162.8125,127.9296875,-394.04296875,-819.3359375,-10.25390625,NaN
1731725536166.7188,136.23046875,-350.5859375,-615.72265625,2.9296875,NaN
1731725536170.625,145.5078125,-381.34765625,-484.86328125,-3.90625,NaN
1731725536174.5312,137.20703125,-745.60546875,-805.6640625,-13.18359375,NaN
1731725536178.4375,144.53125,-932.6171875,-1000,-25.390625,NaN
1731725536182.3438,139.6484375,-895.5078125,-1000,-1.953125,NaN
1731725536186.25,140.13671875,-839.84375,-873.046875,10.25390625,NaN
1731725536190.1562,147.94921875,-260.7421875,-494.140625,-21.97265625,NaN
1731725536194.0625,120.1171875,-517.08984375,-740.72265625,-30.2734375,NaN
1731725536197.9688,100.09765625,-1000,-1000,-6.8359375,NaN
1731725536201.875,85.9375,-539.55078125,-629.8828125,-2.44140625,NaN
1731725536205.7812,88.8671875,65.4296875,-154.296875,-12.6953125,NaN
1731725536209.6875,83.0078125,-311.5234375,-614.74609375,-16.11328125,NaN
1731725536213.5938,86.9140625,-701.171875,-937.98828125,-18.5546875,NaN
1731725536217.5,104.4921875,-373.53515625,-530.2734375,-4.8828125,NaN
1731725536221.4062,137.6953125,-250.48828125,-335.44921875,-4.8828125,NaN
1731725536225.3125,138.18359375,-522.4609375,-643.06640625,-29.296875,NaN
1731725536229.2188,70.80078125,-957.03125,-1000,-10.7421875,NaN
1731725536233.125,-68.359375,-637.20703125,-712.890625,16.6015625,NaN
1731725536237.0312,-275.87890625,173.33984375,-30.76171875,15.13671875,NaN
1731725536240.9375,-271.484375,-152.34375,-355.46875,-5.859375,NaN
1731725536244.8438,-108.88671875,-816.89453125,-972.65625,-22.4609375,NaN
1731725536248.75,-36.1328125,-684.08203125,-893.06640625,-1.953125,NaN
1731725536252.6562,-23.4375,-252.44140625,-402.34375,-4.8828125,NaN
1731725536256.5625,-23.4375,-230.95703125,-310.05859375,-18.5546875,NaN
1731725536260.4688,-20.5078125,-750,-900.390625,-12.6953125,NaN
1731725536264.375,23.4375,-651.3671875,-950.68359375,-5.37109375,NaN
1731725536268.2812,3.90625,-233.88671875,-437.5,20.5078125,NaN
1731725536272.1875,-26.3671875,-471.6796875,-475.5859375,15.625,NaN
1731725536276.0938,-29.296875,-911.62109375,-979.4921875,-41.9921875,NaN
1731725536280,-49.8046875,-666.015625,-991.69921875,-50.78125,NaN
1731725536283.9062,-35.64453125,-48.33984375,-378.41796875,-6.8359375,NaN
1731725536287.8125,-154.296875,70.80078125,-69.3359375,-6.8359375,NaN
1731725536291.7188,-287.59765625,-198.73046875,-416.9921875,-44.921875,NaN
1731725536295.625,-351.07421875,-327.63671875,-736.328125,-41.50390625,NaN
1731725536299.5312,-426.26953125,-250.48828125,-608.3984375,-20.99609375,NaN
1731725536303.4375,-472.16796875,-83.49609375,-263.671875,-4.39453125,NaN
1731725536307.3438,-491.69921875,-245.1171875,-408.203125,-26.3671875,NaN
1731725536311.25,-522.4609375,-598.6328125,-877.9296875,-22.4609375,NaN
1731725536315.1562,-510.25390625,-643.06640625,-909.66796875,5.37109375,NaN
1731725536319.0625,-495.60546875,-809.08203125,-879.39453125,-11.23046875,NaN
1731725536322.9688,-514.16015625,-838.37890625,-894.53125,-30.76171875,NaN
1731725536326.875,-434.5703125,-437.98828125,-787.109375,-28.3203125,NaN
1731725536330.7812,-337.40234375,-449.70703125,-871.09375,-3.41796875,NaN
1731725536334.6875,-341.30859375,-308.10546875,-558.10546875,6.8359375,NaN
1731725536338.5938,-409.1796875,76.66015625,-160.64453125,-9.765625,NaN
1731725536342.5,-320.80078125,-89.35546875,-472.16796875,-8.7890625,NaN
1731725536346.4062,-136.23046875,-626.953125,-1000,-5.859375,NaN
1731725536350.3125,-14.6484375,-485.3515625,-734.86328125,-0.48828125,NaN
1731725536354.2188,47.36328125,220.21484375,-24.4140625,9.27734375,NaN
1731725536358.125,92.28515625,117.67578125,-250.48828125,-13.671875,NaN
1731725536362.0312,144.04296875,-681.15234375,-900.87890625,-20.01953125,NaN
1731725536365.9375,165.0390625,-1000,-1000,15.625,NaN
1731725536369.8438,179.6875,-303.22265625,-461.9140625,24.4140625,NaN
1731725536373.75,164.0625,259.765625,-126.953125,-20.01953125,NaN
1731725536377.6562,163.57421875,-625,-870.1171875,-46.38671875,NaN
1731725536381.5625,167.96875,-799.8046875,-930.17578125,-17.08984375,NaN
1731725536385.4688,151.85546875,123.046875,-210.9375,1.46484375,NaN
1731725536389.375,160.15625,247.0703125,-76.171875,-3.90625,NaN
1731725536393.2812,145.99609375,-332.51953125,-694.82421875,-17.08984375,NaN
1731725536397.1875,139.6484375,-242.67578125,-685.05859375,-28.3203125,NaN
1731725536401.0938,164.0625,223.14453125,-159.1796875,-12.20703125,NaN
1731725536405,158.203125,242.67578125,-95.21484375,-12.20703125,NaN
1731725536408.9062,154.78515625,-535.64453125,-686.5234375,-27.83203125,NaN
1731725536412.8125,194.82421875,-889.6484375,-1000,-25.87890625,NaN
1731725536416.7188,242.1875,-93.75,-491.2109375,-6.34765625,NaN
1731725536420.625,220.703125,303.22265625,-45.8984375,2.9296875,NaN
1731725536424.5312,157.71484375,-500,-599.12109375,-18.5546875,NaN
1731725536428.4375,151.3671875,-955.56640625,-1000,-19.04296875,NaN
1731725536432.3438,170.8984375,-195.80078125,-650.87890625,-10.25390625,NaN
1731725536436.25,172.36328125,140.13671875,-177.24609375,1.46484375,NaN
1731725536440.1562,131.8359375,-89.84375,-339.84375,-12.20703125,NaN
1731725536444.0625,77.63671875,-296.875,-752.9296875,-33.69140625,NaN
1731725536447.9688,85.44921875,-296.38671875,-822.75390625,-29.78515625,NaN
1731725536451.875,24.90234375,-175.29296875,-525.390625,-29.78515625,NaN
1731725536455.7812,-126.953125,-632.32421875,-771.484375,-34.1796875,NaN
1731725536459.6875,-245.60546875,-804.19921875,-1000,-45.8984375,NaN
1731725536463.5938,-307.6171875,-462.40234375,-910.15625,-38.57421875,NaN
1731725536467.5,-348.6328125,-562.5,-841.796875,-0.9765625,NaN
1731725536471.4062,-368.65234375,-825.68359375,-866.69921875,20.99609375,NaN
1731725536475.3125,-432.6171875,-468.75,-739.2578125,-29.296875,NaN
1731725536479.2188,-490.234375,-409.1796875,-819.82421875,-58.10546875,NaN
1731725536483.125,-425.78125,-825.1953125,-999.51171875,-19.53125,NaN
1731725536487.0312,-274.4140625,-551.26953125,-618.65234375,-8.7890625,NaN
1731725536490.9375,-179.19921875,19.04296875,-269.53125,-40.0390625,NaN
1731725536494.8438,-125,-196.77734375,-626.953125,-44.921875,NaN
1731725536498.75,-77.1484375,-368.1640625,-716.796875,-12.6953125,NaN
1731725536502.6562,-50.78125,-376.953125,-520.99609375,-16.11328125,NaN
1731725536506.5625,-47.8515625,-327.63671875,-485.3515625,-54.6875,NaN
1731725536510.4688,1.46484375,-306.640625,-695.3125,-58.59375,NaN
1731725536514.375,57.12890625,-874.51171875,-1000,1.953125,NaN
1731725536518.2812,18.06640625,-430.17578125,-532.71484375,18.06640625,NaN
1731725536522.1875,-10.7421875,229.00390625,-88.37890625,-35.64453125,NaN
1731725536526.0938,-1.46484375,-673.33984375,-860.3515625,-58.10546875,NaN
1731725536530,55.6640625,-790.0390625,-963.37890625,-35.64453125,NaN
1731725536533.9062,72.265625,7.8125,-323.73046875,-8.7890625,NaN
1731725536537.8125,35.64453125,75.68359375,-148.4375,-3.41796875,NaN
1731725536541.7188,45.8984375,-460.9375,-612.3046875,-30.76171875,NaN
1731725536545.625,-11.23046875,-872.0703125,-1000,-45.8984375,NaN
1731725536549.5312,-106.4453125,-731.93359375,-899.90234375,-20.01953125,NaN
1731725536553.4375,-82.03125,5.37109375,-216.796875,-18.5546875,NaN
1731725536557.3438,-41.9921875,-198.2421875,-360.3515625,-48.828125,NaN
1731725536561.25,-64.453125,-996.09375,-1000,-44.921875,NaN
1731725536565.1562,-64.453125,-396.97265625,-731.4453125,-20.01953125,NaN
1731725536569.0625,-78.61328125,247.0703125,-91.30859375,-17.08984375,NaN
1731725536572.9688,-192.87109375,-116.69921875,-322.75390625,-21.97265625,NaN
1731725536576.875,-258.30078125,-462.890625,-784.66796875,-37.59765625,NaN
1731725536580.7812,-214.35546875,-417.96875,-856.4453125,-20.01953125,NaN
1731725536584.6875,-96.6796875,-148.92578125,-486.328125,-12.6953125,NaN
1731725536588.5938,-43.9453125,-115.234375,-358.3984375,-31.25,NaN
1731725536592.5,-31.25,-416.9921875,-757.8125,-37.59765625,NaN
1731725536596.4062,3.41796875,-752.9296875,-999.51171875,-46.38671875,NaN
1731725536600.3125,19.53125,-767.08984375,-926.26953125,-18.5546875,NaN
1731725536604.2188,30.76171875,-812.5,-879.8828125,-1.46484375,NaN
1731725536608.125,52.24609375,-906.25,-997.0703125,-14.6484375,NaN
1731725536612.0312,94.23828125,-361.328125,-783.203125,-22.94921875,NaN
1731725536615.9375,139.16015625,-112.3046875,-540.52734375,0.48828125,NaN
1731725536619.8438,140.13671875,-83.984375,-341.796875,28.80859375,NaN
1731725536623.75,129.8828125,-3.41796875,-319.82421875,-3.41796875,NaN
1731725536627.6562,137.20703125,-304.19921875,-774.4140625,-48.828125,NaN
1731725536631.5625,161.62109375,-581.54296875,-976.5625,-37.59765625,NaN
1731725536635.4688,152.34375,-321.2890625,-552.24609375,-0.48828125,NaN
1731725536639.375,154.296875,16.6015625,-285.15625,-1.46484375,NaN
1731725536643.2812,138.18359375,-453.125,-770.5078125,-30.76171875,NaN
1731725536647.1875,106.93359375,-959.47265625,-1000,-17.578125,NaN
1731725536651.0938,111.81640625,-907.2265625,-912.59765625,16.6015625,NaN
1731725536655,88.8671875,-335.9375,-492.1875,-20.01953125,NaN
1731725536658.9062,70.3125,-270.99609375,-636.71875,-65.4296875,NaN
1731725536662.8125,94.23828125,-885.7421875,-1000,-53.22265625,NaN
1731725536666.7188,119.140625,-663.57421875,-774.4140625,-11.23046875,NaN
1731725536670.625,84.47265625,21.484375,-253.90625,-2.9296875,NaN
1731725536674.5312,37.59765625,-23.92578125,-366.69921875,-26.3671875,NaN
1731725536678.4375,43.9453125,-657.2265625,-942.3828125,-26.85546875,NaN
1731725536682.3438,84.47265625,-571.77734375,-826.66015625,6.34765625,NaN
1731725536686.25,117.67578125,-41.9921875,-330.56640625,14.6484375,NaN
1731725536690.1562,137.20703125,-560.05859375,-690.4296875,-17.578125,NaN
1731725536694.0625,137.6953125,-1000,-1000,-41.015625,NaN
1731725536697.9688,177.24609375,-745.1171875,-898.4375,-30.76171875,NaN
1731725536701.875,195.3125,18.06640625,-293.9453125,-20.01953125,NaN
1731725536705.7812,166.9921875,38.57421875,-192.3828125,-40.0390625,NaN
1731725536709.6875,177.24609375,-802.24609375,-894.53125,-49.8046875,NaN
1731725536713.5938,177.734375,-772.4609375,-983.3984375,-20.01953125,NaN
1731725536717.5,149.4140625,22.4609375,-339.35546875,23.92578125,NaN
1731725536721.4062,154.296875,129.8828125,-101.5625,18.5546875,NaN
1731725536725.3125,165.0390625,-671.875,-804.19921875,-17.08984375,NaN
1731725536729.2188,155.2734375,-747.55859375,-1000,-16.11328125,NaN
1731725536733.125,156.25,-250,-651.3671875,-5.37109375,NaN
1731725536737.0312,162.59765625,-473.14453125,-610.3515625,-4.39453125,NaN
1731725536740.9375,165.0390625,-881.8359375,-949.21875,-2.44140625,NaN
1731725536744.8438,146.97265625,-746.09375,-1000,-31.25,NaN
1731725536748.75,159.66796875,-385.25390625,-805.17578125,-14.16015625,NaN
1731725536752.6562,172.8515625,-306.15234375,-572.75390625,19.53125,NaN
1731725536756.5625,138.18359375,-411.62109375,-666.015625,6.34765625,NaN
1731725536760.4688,128.90625,-494.140625,-868.1640625,-18.06640625,NaN
1731725536764.375,136.71875,-560.546875,-959.9609375,-16.11328125,NaN
1731725536768.2812,146.97265625,-640.625,-865.72265625,0.9765625,NaN
1731725536772.1875,132.32421875,-538.0859375,-683.10546875,-3.41796875,NaN
1731725536776.0938,110.3515625,-319.3359375,-723.6328125,-29.296875,NaN
1731725536780,129.8828125,-498.046875,-966.30859375,-21.97265625,NaN
1731725536783.9062,145.5078125,-679.6875,-903.3203125,-3.41796875,NaN
1731725536787.8125,134.27734375,-378.41796875,-503.90625,-14.16015625,NaN
1731725536791.7188,117.67578125,20.5078125,-331.0546875,-33.203125,NaN
1731725536795.625,132.8125,-18.5546875,-497.55859375,-9.27734375,NaN
1731725536799.5312,147.94921875,-372.0703125,-630.859375,19.04296875,NaN
1731725536803.4375,164.55078125,-104.98046875,-270.01953125,12.20703125,NaN
1731725536807.3438,161.1328125,345.21484375,-35.64453125,-4.39453125,NaN
1731725536811.25,126.46484375,-150.87890625,-604.4921875,-17.08984375,NaN
1731725536815.1562,131.34765625,-383.30078125,-773.4375,5.859375,NaN
1731725536819.0625,153.3203125,210.9375,-132.32421875,17.578125,NaN
1731725536822.9688,127.44140625,203.125,-129.8828125,-11.71875,NaN
1731725536826.875,92.28515625,-537.109375,-786.1328125,-22.4609375,NaN
1731725536830.7812,107.91015625,-950.1953125,-1000,0,NaN
1731725536834.6875,107.91015625,-419.43359375,-617.67578125,-0.9765625,NaN
1731725536838.5938,84.47265625,215.33203125,-142.08984375,-14.16015625,NaN
1731725536842.5,75.68359375,-457.03125,-664.0625,-15.625,NaN
1731725536846.4062,83.984375,-992.67578125,-1000,-4.39453125,NaN
1731725536850.3125,91.796875,-175.29296875,-495.1171875,-0.9765625,NaN
1731725536854.2188,93.26171875,359.375,11.71875,8.7890625,NaN
1731725536858.125,78.125,-250.48828125,-552.734375,-15.625,NaN
1731725536862.0312,51.7578125,-657.71484375,-1000,-46.875,NaN
1731725536865.9375,52.24609375,-240.234375,-697.75390625,-16.11328125,NaN
1731725536869.8438,60.05859375,169.43359375,-137.6953125,-18.5546875,NaN
1731725536873.75,49.8046875,-213.37890625,-476.5625,-36.62109375,NaN
1731725536877.6562,56.15234375,-863.28125,-1000,-35.64453125,NaN
1731725536881.5625,69.82421875,-862.3046875,-984.375,-27.83203125,NaN
1731725536885.4688,60.05859375,-319.3359375,-532.71484375,-9.765625,NaN
1731725536889.375,29.78515625,-545.41015625,-588.8671875,8.30078125,NaN
1731725536893.2812,25.390625,-924.8046875,-1000,4.39453125,NaN
1731725536897.1875,61.5234375,-444.82421875,-890.625,0,NaN
1731725536901.0938,90.33203125,-93.75,-429.6875,19.04296875,NaN
1731725536905,93.26171875,-381.34765625,-497.0703125,3.90625,NaN
1731725536908.9062,61.5234375,-472.16796875,-735.83984375,-30.76171875,NaN
1731725536912.8125,45.41015625,-410.15625,-887.20703125,-21.484375,NaN
1731725536916.7188,83.0078125,-510.7421875,-846.19140625,-1.46484375,NaN
1731725536920.625,74.70703125,-155.76171875,-337.890625,15.625,NaN
1731725536924.5312,52.734375,-365.234375,-536.1328125,9.765625,NaN
1731725536928.4375,31.73828125,-702.1484375,-993.65234375,-16.11328125,NaN
1731725536932.3438,69.3359375,-736.81640625,-1000,10.25390625,NaN
1731725536936.25,95.703125,-754.39453125,-784.66796875,41.50390625,NaN
1731725536940.1562,36.62109375,-438.4765625,-589.84375,-9.27734375,NaN
1731725536944.0625,30.76171875,-503.90625,-854.98046875,-54.6875,NaN
1731725536947.9688,47.36328125,-927.24609375,-1000,-34.66796875,NaN
1731725536951.875,57.6171875,-679.19921875,-725.5859375,-9.27734375,NaN
1731725536955.7812,43.9453125,-31.25,-294.43359375,-28.80859375,NaN
1731725536959.6875,13.18359375,-238.76953125,-637.6953125,-50.29296875,NaN
1731725536963.5938,15.13671875,-699.70703125,-996.09375,-47.36328125,NaN
1731725536967.5,28.80859375,-523.4375,-713.8671875,-15.13671875,NaN
1731725536971.4062,20.99609375,-377.44140625,-556.640625,-8.30078125,NaN
1731725536975.3125,24.4140625,-656.25,-854.98046875,-27.34375,NaN
1731725536979.2188,59.08203125,-952.63671875,-1000,-16.11328125,NaN
1731725536983.125,57.12890625,-574.21875,-691.89453125,-6.8359375,NaN
1731725536987.0312,18.06640625,256.34765625,-17.578125,-26.3671875,NaN
1731725536990.9375,-22.94921875,-68.359375,-371.09375,-41.50390625,NaN
1731725536994.8438,3.90625,-935.05859375,-1000,-40.52734375,NaN
1731725536998.75,66.40625,-671.38671875,-823.2421875,-3.41796875,NaN
1731725537002.6562,78.61328125,185.546875,-170.41015625,30.76171875,NaN
1731725537006.5625,78.61328125,-33.69140625,-312.98828125,13.671875,NaN
1731725537010.4688,87.40234375,-822.265625,-999.51171875,-23.4375,NaN
1731725537014.375,109.86328125,-544.43359375,-864.2578125,-16.6015625,NaN
1731725537018.2812,94.7265625,-214.35546875,-488.28125,4.8828125,NaN
1731725537022.1875,61.5234375,-635.7421875,-705.078125,-0.9765625,NaN
1731725537026.0938,46.875,-954.1015625,-994.140625,-8.7890625,NaN
1731725537030,44.921875,-729.4921875,-1000,4.39453125,NaN
1731725537033.9062,18.06640625,-216.30859375,-626.953125,14.6484375,NaN
1731725537037.8125,-45.41015625,-179.19921875,-410.15625,-1.46484375,NaN
1731725537041.7188,-52.734375,-406.25,-691.89453125,2.9296875,NaN
1731725537045.625,-59.08203125,-433.10546875,-892.578125,-1.46484375,NaN
1731725537049.5312,-96.19140625,-167.48046875,-583.0078125,-16.6015625,NaN
1731725537053.4375,-130.37109375,-229.98046875,-400.87890625,-27.34375,NaN
1731725537057.3438,-120.60546875,-492.67578125,-715.33203125,-71.2890625,NaN
1731725537061.25,-73.2421875,-583.984375,-929.6875,-85.9375,NaN
1731725537065.1562,-41.015625,-802.734375,-992.67578125,-43.45703125,NaN
1731725537069.0625,-22.94921875,-916.9921875,-982.421875,-20.5078125,NaN
1731725537072.9688,-34.1796875,-709.47265625,-806.640625,-42.96875,NaN
1731725537076.875,-42.96875,-435.546875,-811.03515625,-76.171875,NaN
1731725537080.7812,-55.6640625,-461.9140625,-895.01953125,-55.6640625,NaN
1731725537084.6875,-85.44921875,-463.37890625,-664.0625,-11.23046875,NaN
1731725537088.5938,-113.28125,-249.51171875,-397.94921875,-20.99609375,NaN
1731725537092.5,-97.65625,-189.94140625,-550.29296875,-53.22265625,NaN
1731725537096.4062,-30.2734375,-769.04296875,-1000,-45.8984375,NaN
1731725537100.3125,-10.7421875,-632.32421875,-734.86328125,0.9765625,NaN
1731725537104.2188,-68.359375,135.25390625,-68.84765625,9.27734375,NaN
1731725537108.125,-114.74609375,-231.93359375,-482.91015625,-23.92578125,NaN
1731725537112.0312,-125.9765625,-948.2421875,-1000,-18.06640625,NaN
1731725537115.9375,-99.609375,-1000,-1000,8.7890625,NaN
1731725537119.8438,-97.16796875,-372.0703125,-466.796875,0.9765625,NaN
1731725537123.75,-113.28125,27.34375,-249.0234375,-32.2265625,NaN
1731725537127.6562,-99.12109375,-732.91015625,-912.109375,-54.6875,NaN
1731725537131.5625,-88.37890625,-789.0625,-908.69140625,-10.7421875,NaN
1731725537135.4688,-112.79296875,28.80859375,-225.09765625,18.06640625,NaN
1731725537139.375,-94.7265625,131.8359375,-133.30078125,-8.30078125,NaN
1731725537143.2812,-28.3203125,-649.4140625,-802.24609375,-22.94921875,NaN
1731725537147.1875,9.765625,-878.90625,-1000,-29.296875,NaN
1731725537151.0938,20.99609375,-188.4765625,-468.75,-26.3671875,NaN
1731725537155,0.9765625,-3.90625,-250,-29.296875,NaN
1731725537158.9062,4.8828125,-670.41015625,-784.1796875,-37.59765625,NaN
1731725537162.8125,11.71875,-1000,-1000,-31.25,NaN
1731725537166.7188,21.97265625,-687.98828125,-819.3359375,-6.34765625,NaN
1731725537170.625,-13.671875,-462.40234375,-609.375,-6.34765625,NaN
1731725537174.5312,-32.2265625,-828.125,-850.09765625,-45.8984375,NaN
1731725537178.4375,-41.015625,-924.8046875,-1000,-48.33984375,NaN
1731725537182.3438,-42.48046875,-417.48046875,-822.265625,-36.62109375,NaN
1731725537186.25,-38.57421875,-131.8359375,-375,-14.16015625,NaN
1731725537190.1562,-71.2890625,-355.46875,-524.90234375,-38.57421875,NaN
1731725537194.0625,-79.58984375,-529.296875,-928.7109375,-57.12890625,NaN
1731725537197.9688,-66.89453125,-419.43359375,-871.58203125,-13.18359375,NaN
1731725537201.875,-69.82421875,-324.70703125,-565.4296875,10.25390625,NaN
1731725537205.7812,-77.1484375,-833.0078125,-869.62890625,-4.39453125,NaN
1731725537209.6875,-66.40625,-1000,-1000,-17.08984375,NaN
1731725537213.5938,-59.08203125,-830.078125,-976.07421875,-20.99609375,NaN
1731725537217.5,-32.2265625,-837.890625,-995.60546875,18.5546875,NaN
1731725537221.4062,-20.99609375,-957.03125,-997.0703125,29.296875,NaN
1731725537225.3125,-6.34765625,-965.33203125,-990.234375,-24.4140625,NaN
1731725537229.2188,-1.953125,-909.66796875,-993.65234375,-36.62109375,NaN
1731725537233.125,16.11328125,-929.19921875,-1000,-7.32421875,NaN
1731725537237.0312,34.66796875,-583.984375,-653.80859375,-1.46484375,NaN
1731725537240.9375,-23.4375,-316.40625,-573.2421875,-28.80859375,NaN
1731725537244.8438,-17.578125,-719.23828125,-983.3984375,-42.96875,NaN
1731725537248.75,38.0859375,-937.5,-1000,-20.01953125,NaN
1731725537252.6562,44.921875,-812.98828125,-850.5859375,0,NaN
1731725537256.5625,34.1796875,-712.890625,-850.5859375,-18.06640625,NaN
1731725537260.4688,41.015625,-848.14453125,-991.2109375,-55.6640625,NaN
1731725537264.375,27.83203125,-1000,-1000,-52.24609375,NaN
1731725537268.2812,8.30078125,-577.1484375,-666.015625,-33.203125,NaN
1731725537272.1875,-34.66796875,105.46875,-168.45703125,-57.12890625,NaN
1731725537276.0938,-23.4375,-344.7265625,-616.69921875,-65.4296875,NaN
1731725537280,-4.8828125,-903.3203125,-1000,-34.66796875,NaN
1731725537283.9062,-14.6484375,-544.921875,-696.2890625,-12.6953125,NaN
1731725537287.8125,-14.6484375,-106.93359375,-321.77734375,-18.06640625,NaN
1731725537291.7188,-17.08984375,-497.55859375,-696.2890625,-48.828125,NaN
1731725537295.625,-3.41796875,-1000,-1000,-40.52734375,NaN
1731725537299.5312,0.9765625,-869.140625,-912.109375,-31.25,NaN
1731725537303.4375,-9.765625,-482.91015625,-626.953125,-37.109375,NaN
1731725537307.3438,-5.859375,-620.60546875,-735.3515625,-47.36328125,NaN
1731725537311.25,5.37109375,-1000,-1000,-25.390625,NaN
1731725537315.1562,-0.48828125,-633.30078125,-863.28125,18.5546875,NaN
1731725537319.0625,-32.71484375,33.203125,-287.109375,18.5546875,NaN
1731725537322.9688,-51.7578125,-365.72265625,-498.046875,9.27734375,NaN
1731725537326.875,-39.0625,-895.01953125,-1000,-9.765625,NaN
1731725537330.7812,-46.38671875,-494.62890625,-903.3203125,-35.15625,NaN
1731725537334.6875,-32.2265625,31.73828125,-291.015625,-28.80859375,NaN
1731725537338.5938,-38.57421875,-136.23046875,-289.55078125,-30.76171875,NaN
1731725537342.5,-28.3203125,-690.4296875,-862.3046875,-36.62109375,NaN
1731725537346.4062,3.41796875,-948.73046875,-1000,-16.6015625,NaN
1731725537350.3125,10.25390625,-712.890625,-820.80078125,2.9296875,NaN
1731725537354.2188,2.44140625,-704.58984375,-758.30078125,0.48828125,NaN
1731725537358.125,2.9296875,-954.1015625,-1000,-25.390625,NaN
1731725537362.0312,7.32421875,-567.3828125,-952.1484375,-46.38671875,NaN
1731725537365.9375,18.5546875,-397.94921875,-780.2734375,-21.97265625,NaN
1731725537369.8438,9.27734375,-244.140625,-431.640625,-17.578125,NaN
1731725537373.75,0.48828125,-172.36328125,-418.9453125,-53.22265625,NaN
1731725537377.6562,17.08984375,-464.35546875,-905.2734375,-50.78125,NaN
1731725537381.5625,24.4140625,-624.0234375,-1000,-15.625,NaN
1731725537385.4688,-11.23046875,-414.55078125,-635.25390625,1.46484375,NaN
1731725537389.375,-27.83203125,-155.2734375,-467.7734375,-11.23046875,NaN
1731725537393.2812,-8.7890625,-719.23828125,-905.2734375,-27.83203125,NaN
1731725537397.1875,7.32421875,-1000,-1000,-13.671875,NaN
1731725537401.0938,28.80859375,-970.21484375,-979.4921875,4.8828125,NaN
1731725537405,26.3671875,-412.59765625,-582.51953125,20.99609375,NaN
1731725537408.9062,21.484375,-126.953125,-590.8203125,7.8125,NaN
1731725537412.8125,44.43359375,-731.4453125,-1000,-14.16015625,NaN
1731725537416.7188,60.546875,-493.1640625,-714.84375,13.671875,NaN
1731725537420.625,47.8515625,227.5390625,-148.92578125,33.69140625,NaN
1731725537424.5312,34.1796875,-22.4609375,-442.3828125,-0.48828125,NaN
1731725537428.4375,26.3671875,-678.22265625,-1000,-3.90625,NaN
1731725537432.3438,27.34375,-463.8671875,-776.3671875,9.27734375,NaN
1731725537436.25,21.484375,95.703125,-285.64453125,12.20703125,NaN
1731725537440.1562,5.859375,-370.1171875,-629.39453125,8.30078125,NaN
1731725537444.0625,-33.203125,-1000,-1000,-22.4609375,NaN
1731725537447.9688,-24.4140625,-750.48828125,-918.45703125,-11.71875,NaN
1731725537451.875,5.859375,-261.23046875,-603.02734375,16.6015625,NaN
1731725537455.7812,-1.953125,-447.265625,-721.19140625,-10.25390625,NaN
1731725537459.6875,-5.37109375,-870.60546875,-983.88671875,-43.9453125,NaN
1731725537463.5938,13.18359375,-850.5859375,-1000,-29.296875,NaN
1731725537467.5,9.765625,-286.62109375,-715.33203125,-15.13671875,NaN
1731725537471.4062,-35.64453125,-135.7421875,-442.87109375,-22.4609375,NaN
1731725537475.3125,-40.52734375,-519.53125,-843.75,-38.0859375,NaN
1731725537479.2188,-20.99609375,-619.140625,-1000,-51.26953125,NaN
1731725537483.125,-1.953125,-324.70703125,-771.484375,-25.87890625,NaN
1731725537487.0312,-21.97265625,-546.38671875,-770.99609375,9.27734375,NaN
1731725537490.9375,-49.31640625,-1000,-1000,-2.44140625,NaN
1731725537494.8438,-34.1796875,-997.0703125,-1000,-25.390625,NaN
1731725537498.75,20.01953125,-625.48828125,-931.15234375,-23.4375,NaN
1731725537502.6562,32.2265625,-634.765625,-867.67578125,1.953125,NaN
1731725537506.5625,0.9765625,-733.3984375,-952.63671875,6.8359375,NaN
1731725537510.4688,34.1796875,-765.13671875,-984.86328125,-25.390625,NaN
1731725537514.375,52.734375,-885.7421875,-1000,-1.953125,NaN
1731725537518.2812,19.53125,-808.10546875,-977.5390625,11.71875,NaN
1731725537522.1875,-20.5078125,-723.6328125,-882.32421875,-9.765625,NaN
1731725537526.0938,-53.22265625,-548.33984375,-917.96875,-14.6484375,NaN
1731725537530,-26.3671875,-782.2265625,-1000,-15.625,NaN
1731725537533.9062,-14.6484375,-951.66015625,-976.07421875,-9.27734375,NaN
1731725537537.8125,-51.26953125,-654.78515625,-758.30078125,-15.625,NaN
1731725537541.7188,-25.390625,-533.203125,-851.07421875,-45.8984375,NaN
1731725537545.625,3.41796875,-853.02734375,-1000,-37.59765625,NaN
1731725537549.5312,-8.7890625,-982.421875,-982.421875,17.08984375,NaN
1731725537553.4375,0,-466.30859375,-628.41796875,12.6953125,NaN
1731725537557.3438,7.8125,-290.0390625,-659.66796875,-6.8359375,NaN
1731725537561.25,-58.59375,-832.03125,-1000,-28.3203125,NaN
1731725537565.1562,-69.82421875,-876.46484375,-948.73046875,-36.62109375,NaN
1731725537569.0625,-38.57421875,-523.4375,-679.19921875,-23.4375,NaN
1731725537572.9688,-64.453125,-277.34375,-503.90625,-36.1328125,NaN
1731725537576.875,-56.640625,-564.453125,-767.08984375,-58.10546875,NaN
1731725537580.7812,-20.99609375,-1000,-1000,-34.66796875,NaN
1731725537584.6875,-13.671875,-723.14453125,-753.41796875,2.44140625,NaN
1731725537588.5938,-25.390625,71.77734375,-107.91015625,-10.25390625,NaN
1731725537592.5,-16.11328125,-265.625,-454.58984375,-23.4375,NaN
1731725537596.4062,-1.46484375,-903.80859375,-1000,-4.8828125,NaN
1731725537600.3125,28.3203125,-192.3828125,-451.171875,12.6953125,NaN
1731725537604.2188,42.48046875,277.34375,23.92578125,9.765625,NaN
1731725537608.125,16.6015625,-176.26953125,-430.6640625,-32.71484375,NaN
1731725537612.0312,-5.859375,-514.16015625,-876.46484375,-30.2734375,NaN
1731725537615.9375,13.671875,-185.546875,-544.43359375,3.90625,NaN
1731725537619.8438,16.11328125,41.015625,-192.87109375,17.578125,NaN
1731725537623.75,-26.3671875,-472.16796875,-628.90625,8.30078125,NaN
1731725537627.6562,-32.2265625,-992.67578125,-1000,-1.953125,NaN
1731725537631.5625,-11.71875,-873.046875,-959.47265625,6.34765625,NaN
1731725537635.4688,-6.8359375,-435.05859375,-581.54296875,3.41796875,NaN
1731725537639.375,-17.08984375,-636.23046875,-652.34375,-14.16015625,NaN
1731725537643.2812,-39.0625,-948.2421875,-1000,-28.80859375,NaN
1731725537647.1875,-28.80859375,-276.3671875,-683.10546875,-13.18359375,NaN
1731725537651.0938,-15.13671875,125,-194.3359375,4.39453125,NaN
1731725537655,-35.15625,-287.109375,-483.88671875,-10.25390625,NaN
1731725537658.9062,-31.25,-625.48828125,-896.484375,-19.53125,NaN
1731725537662.8125,-5.37109375,-781.73828125,-989.74609375,-16.11328125,NaN
1731725537666.7188,9.765625,-833.984375,-1000,-10.7421875,NaN
1731725537670.625,-15.13671875,-702.63671875,-838.37890625,-24.90234375,NaN
1731725537674.5312,-22.94921875,-801.7578125,-865.234375,-53.22265625,NaN
1731725537678.4375,18.06640625,-974.609375,-1000,-35.15625,NaN
1731725537682.3438,17.08984375,-909.66796875,-1000,-0.9765625,NaN
1731725537686.25,4.39453125,-979.98046875,-980.95703125,2.44140625,NaN
1731725537690.1562,5.37109375,-739.2578125,-911.62109375,-8.30078125,NaN
1731725537694.0625,-14.16015625,-598.14453125,-957.51953125,-31.25,NaN
1731725537697.9688,-2.44140625,-907.71484375,-1000,4.8828125,NaN
1731725537701.875,23.4375,-472.16796875,-608.3984375,26.3671875,NaN
1731725537705.7812,6.8359375,168.9453125,-161.1328125,-5.37109375,NaN
1731725537709.6875,6.34765625,-351.5625,-735.83984375,-13.671875,NaN
1731725537713.5938,23.92578125,-812.98828125,-1000,4.8828125,NaN
1731725537717.5,19.04296875,-171.38671875,-406.25,28.80859375,NaN
1731725537721.4062,-1.953125,176.7578125,-42.96875,16.11328125,NaN
1731725537725.3125,-29.78515625,-336.42578125,-603.515625,-24.4140625,NaN
1731725537729.2188,-12.20703125,-922.8515625,-1000,-16.6015625,NaN
1731725537733.125,24.90234375,-552.24609375,-665.52734375,15.625,NaN
1731725537737.0312,16.11328125,369.62890625,49.31640625,-4.39453125,NaN
1731725537740.9375,-4.39453125,-55.17578125,-373.046875,-22.4609375,NaN
1731725537744.8438,-15.13671875,-895.01953125,-1000,-8.7890625,NaN
1731725537748.75,0,-515.625,-790.0390625,-1.953125,NaN
1731725537752.6562,-4.8828125,182.12890625,-218.26171875,-19.04296875,NaN
1731725537756.5625,1.953125,-13.18359375,-328.125,-16.6015625,NaN
1731725537760.4688,-11.23046875,-458.0078125,-866.69921875,-33.69140625,NaN
1731725537764.375,-41.50390625,-382.32421875,-864.74609375,-52.24609375,NaN
1731725537768.2812,-32.71484375,-231.93359375,-545.41015625,-24.4140625,NaN
1731725537772.1875,-47.36328125,-432.6171875,-558.10546875,-43.9453125,NaN
1731725537776.0938,-51.26953125,-851.07421875,-969.7265625,-60.05859375,NaN
1731725537780,-17.08984375,-469.7265625,-866.2109375,-42.96875,NaN
1731725537783.9062,-9.27734375,182.6171875,-255.859375,-14.16015625,NaN
1731725537787.8125,-38.57421875,18.06640625,-211.9140625,-10.7421875,NaN
1731725537791.7188,-31.73828125,-339.84375,-629.39453125,-24.90234375,NaN
1731725537795.625,6.34765625,-344.7265625,-794.43359375,-13.18359375,NaN
1731725537799.5312,25.390625,-384.27734375,-724.12109375,4.39453125,NaN
1731725537803.4375,7.32421875,-404.296875,-532.2265625,-1.953125,NaN
1731725537807.3438,-7.32421875,-512.20703125,-730.95703125,-19.53125,NaN
1731725537811.25,-4.39453125,-514.6484375,-956.0546875,-19.04296875,NaN
1731725537815.1562,6.8359375,-526.3671875,-868.1640625,-9.27734375,NaN
1731725537819.0625,0.48828125,-730.95703125,-844.23828125,0.48828125,NaN
1731725537822.9688,-2.9296875,-632.32421875,-782.2265625,-0.9765625,NaN
1731725537826.875,13.671875,-238.28125,-695.3125,-6.34765625,NaN
1731725537830.7812,31.25,-466.796875,-942.87109375,21.484375,NaN
1731725537834.6875,20.01953125,-407.2265625,-675.78125,45.8984375,NaN
1731725537838.5938,27.83203125,15.625,-223.14453125,8.30078125,NaN
1731725537842.5,93.75,-0.48828125,-418.9453125,-7.8125,NaN
1731725537846.4062,134.765625,-457.51953125,-889.6484375,-3.41796875,NaN
1731725537850.3125,151.3671875,-372.55859375,-651.85546875,-4.8828125,NaN
1731725537854.2188,170.8984375,-8.30078125,-208.49609375,-4.39453125,NaN
1731725537858.125,167.96875,-255.859375,-551.7578125,-27.34375,NaN
1731725537862.0312,203.125,-723.14453125,-954.58984375,-39.0625,NaN
1731725537865.9375,235.83984375,-805.17578125,-877.9296875,-14.16015625,NaN
1731725537869.8438,219.23828125,115.72265625,-86.9140625,2.44140625,NaN
1731725537873.75,195.3125,437.5,74.70703125,-21.484375,NaN
1731725537877.6562,187.5,-502.9296875,-762.6953125,-55.17578125,NaN
1731725537881.5625,244.62890625,-761.71875,-857.91015625,-30.2734375,NaN
1731725537885.4688,252.44140625,167.96875,-110.83984375,-13.18359375,NaN
1731725537889.375,217.28515625,252.9296875,-85.9375,-28.3203125,NaN
1731725537893.2812,225.09765625,-607.91015625,-805.6640625,-28.80859375,NaN
1731725537897.1875,237.79296875,-705.078125,-948.73046875,-17.578125,NaN
1731725537901.0938,241.69921875,74.21875,-286.1328125,2.9296875,NaN
1731725537905,233.88671875,317.87109375,5.37109375,-10.7421875,NaN
1731725537908.9062,229.4921875,-452.1484375,-620.60546875,-35.64453125,NaN
1731725537912.8125,233.88671875,-1000,-1000,-27.83203125,NaN
1731725537916.7188,255.859375,-462.890625,-683.10546875,16.6015625,NaN
1731725537920.625,239.2578125,218.26171875,-91.796875,33.203125,NaN
1731725537924.5312,178.7109375,-464.35546875,-605.95703125,0.48828125,NaN
1731725537928.4375,192.3828125,-794.921875,-1000,-17.578125,NaN
1731725537932.3438,224.609375,-127.9296875,-594.7265625,1.46484375,NaN
1731725537936.25,229.4921875,181.640625,-130.37109375,27.83203125,NaN
1731725537940.1562,208.984375,-465.8203125,-644.53125,6.8359375,NaN
1731725537944.0625,188.4765625,-891.6015625,-1000,-13.671875,NaN
1731725537947.9688,203.125,-551.7578125,-888.18359375,-9.765625,NaN
1731725537951.875,209.9609375,-256.8359375,-531.73828125,2.44140625,NaN
1731725537955.7812,182.12890625,-513.18359375,-628.90625,7.8125,NaN
1731725537959.6875,135.7421875,-849.609375,-992.67578125,-7.8125,NaN
1731725537963.5938,125.9765625,-544.921875,-889.6484375,-9.765625,NaN
1731725537967.5,132.8125,-407.71484375,-675.78125,12.6953125,NaN
1731725537971.4062,120.60546875,-741.69921875,-774.4140625,-7.32421875,NaN
1731725537975.3125,118.65234375,-391.11328125,-665.0390625,-47.36328125,NaN
1731725537979.2188,132.32421875,-235.3515625,-730.95703125,-43.45703125,NaN
1731725537983.125,118.65234375,-689.453125,-938.4765625,-9.765625,NaN
1731725537987.0312,114.74609375,-557.6171875,-626.46484375,5.859375,NaN
1731725537990.9375,95.703125,-105.46875,-418.45703125,-24.4140625,NaN
1731725537994.8438,60.546875,-419.43359375,-876.46484375,-42.48046875,NaN
1731725537998.75,62.01171875,-450.1953125,-800.78125,-16.6015625,NaN
1731725538002.6562,42.96875,-466.796875,-567.3828125,-11.23046875,NaN
1731725538006.5625,37.109375,-674.8046875,-782.71484375,-29.78515625,NaN
1731725538010.4688,66.40625,-729.00390625,-933.59375,-19.53125,NaN
1731725538014.375,97.16796875,-1000,-1000,15.625,NaN
1731725538018.2812,92.7734375,-325.68359375,-409.1796875,27.83203125,NaN
1731725538022.1875,61.5234375,676.7578125,428.7109375,15.13671875,NaN
1731725538026.0938,33.69140625,19.53125,-266.11328125,-12.6953125,NaN
1731725538030,39.0625,-714.84375,-915.0390625,-36.62109375,NaN
1731725538033.9062,61.5234375,-37.59765625,-250.48828125,-10.7421875,NaN
1731725538037.8125,55.6640625,655.76171875,394.53125,15.13671875,NaN
1731725538041.7188,51.26953125,0.9765625,-221.19140625,-6.8359375,NaN
1731725538045.625,69.82421875,-650.390625,-909.66796875,-26.85546875,NaN
1731725538049.5312,102.05078125,-454.1015625,-666.015625,14.6484375,NaN
1731725538053.4375,66.89453125,152.83203125,11.23046875,19.53125,NaN
1731725538057.3438,58.10546875,-10.7421875,-168.9453125,-8.7890625,NaN
1731725538061.25,82.03125,-867.1875,-977.05078125,-14.16015625,NaN
1731725538065.1562,62.98828125,-277.34375,-581.0546875,-10.7421875,NaN
1731725538069.0625,40.0390625,515.13671875,201.171875,4.8828125,NaN
1731725538072.9688,23.4375,261.71875,63.96484375,-5.37109375,NaN
1731725538076.875,41.015625,-238.28125,-551.7578125,-49.8046875,NaN
1731725538080.7812,47.36328125,-194.3359375,-600.09765625,-62.01171875,NaN
1731725538084.6875,21.97265625,-158.203125,-372.55859375,-8.7890625,NaN
1731725538088.5938,15.13671875,-496.09375,-565.4296875,-13.18359375,NaN
1731725538092.5,25.390625,-733.88671875,-929.6875,-57.12890625,NaN
1731725538096.4062,-12.20703125,-776.85546875,-1000,-43.9453125,NaN
1731725538100.3125,4.8828125,-480.46875,-658.69140625,-4.39453125,NaN
1731725538104.2188,40.0390625,-536.1328125,-574.21875,-4.39453125,NaN
1731725538108.125,39.0625,-727.5390625,-861.328125,-21.97265625,NaN
1731725538112.0312,41.50390625,-381.8359375,-794.921875,-13.18359375,NaN
1731725538115.9375,72.265625,-322.75390625,-662.109375,14.16015625,NaN
1731725538119.8438,63.4765625,-45.41015625,-179.19921875,12.6953125,NaN
1731725538123.75,32.71484375,58.10546875,-147.4609375,-20.01953125,NaN
1731725538127.6562,60.546875,-385.7421875,-808.10546875,-22.4609375,NaN
1731725538131.5625,98.6328125,-541.9921875,-888.18359375,9.765625,NaN
1731725538135.4688,96.19140625,-106.4453125,-278.80859375,30.2734375,NaN
1731725538139.375,81.54296875,59.5703125,-181.640625,-3.90625,NaN
1731725538143.2812,82.03125,-625,-780.2734375,-42.96875,NaN
1731725538147.1875,95.21484375,-1000,-1000,-24.90234375,NaN
1731725538151.0938,95.703125,-929.6875,-951.171875,29.296875,NaN
1731725538155,92.7734375,-217.28515625,-328.61328125,29.78515625,NaN
1731725538158.9062,55.17578125,80.56640625,-262.6953125,-28.3203125,NaN
1731725538162.8125,61.5234375,-723.6328125,-957.03125,-28.3203125,NaN
1731725538166.7188,81.0546875,-589.35546875,-683.59375,8.30078125,NaN
1731725538170.625,61.5234375,297.36328125,70.80078125,8.30078125,NaN
1731725538174.5312,42.96875,71.2890625,-207.03125,-6.8359375,NaN
1731725538178.4375,33.69140625,-586.42578125,-888.18359375,-26.85546875,NaN
1731725538182.3438,74.21875,-200.68359375,-501.46484375,-18.5546875,NaN
1731725538186.25,56.15234375,332.03125,76.66015625,-5.37109375,NaN
1731725538190.1562,47.36328125,-392.08984375,-531.73828125,-32.71484375,NaN
1731725538194.0625,61.03515625,-1000,-1000,-40.52734375,NaN
1731725538197.9688,48.33984375,-981.4453125,-1000,-7.8125,NaN
1731725538201.875,47.36328125,-354.98046875,-560.05859375,15.13671875,NaN
1731725538205.7812,70.80078125,-134.765625,-414.55078125,-4.8828125,NaN
1731725538209.6875,64.453125,-847.16796875,-953.61328125,-31.25,NaN
1731725538213.5938,40.0390625,-953.61328125,-1000,0.48828125,NaN
1731725538217.5,44.43359375,-496.09375,-776.3671875,24.4140625,NaN
1731725538221.4062,45.8984375,-327.63671875,-530.76171875,9.27734375,NaN
1731725538225.3125,17.578125,-616.2109375,-844.7265625,-32.2265625,NaN
1731725538229.2188,21.97265625,-630.859375,-1000,-41.9921875,NaN
1731725538233.125,63.96484375,-417.48046875,-788.57421875,-0.48828125,NaN
1731725538237.0312,108.88671875,-536.1328125,-654.78515625,13.671875,NaN
1731725538240.9375,64.453125,-912.109375,-959.9609375,-3.90625,NaN
1731725538244.8438,14.6484375,-622.55859375,-935.05859375,-32.71484375,NaN
1731725538248.75,56.640625,54.6875,-351.07421875,-34.1796875,NaN
1731725538252.6562,62.98828125,-20.5078125,-188.4765625,1.46484375,NaN
1731725538256.5625,20.01953125,-422.8515625,-518.5546875,-17.578125,NaN
1731725538260.4688,24.90234375,-256.34765625,-611.328125,-44.43359375,NaN
1731725538264.375,32.2265625,3.41796875,-457.03125,-12.20703125,NaN
1731725538268.2812,28.3203125,-350.5859375,-547.8515625,3.90625,NaN
1731725538272.1875,6.34765625,-418.45703125,-508.7890625,-16.11328125,NaN
1731725538276.0938,1.46484375,-161.1328125,-528.3203125,-39.55078125,NaN
1731725538280,7.32421875,-337.890625,-789.55078125,-20.99609375,NaN
1731725538283.9062,28.3203125,-665.52734375,-868.65234375,14.16015625,NaN
1731725538287.8125,42.96875,-442.87109375,-543.9453125,6.34765625,NaN
1731725538291.7188,-5.37109375,-190.91796875,-494.62890625,-42.48046875,NaN
1731725538295.625,1.46484375,-496.58203125,-949.70703125,-35.64453125,NaN
1731725538299.5312,45.41015625,-683.59375,-907.2265625,7.8125,NaN
1731725538303.4375,-1.46484375,-316.40625,-415.0390625,-1.953125,NaN
1731725538307.3438,-1.953125,-84.47265625,-418.9453125,-25.390625,NaN
1731725538311.25,42.96875,-642.08984375,-962.40234375,-0.48828125,NaN
1731725538315.1562,48.33984375,-668.9453125,-823.2421875,16.6015625,NaN
1731725538319.0625,29.296875,81.0546875,-128.90625,19.04296875,NaN
1731725538322.9688,22.94921875,208.0078125,-128.90625,-11.71875,NaN
1731725538326.875,29.78515625,-567.87109375,-783.69140625,-38.0859375,NaN
1731725538330.7812,37.59765625,-1000,-1000,-31.73828125,NaN
1731725538334.6875,44.43359375,-428.7109375,-590.33203125,-30.76171875,NaN
1731725538338.5938,20.01953125,132.8125,-145.5078125,-22.4609375,NaN
1731725538342.5,22.4609375,-431.640625,-643.06640625,-26.85546875,NaN
1731725538346.4062,22.94921875,-943.84765625,-1000,-35.15625,NaN
1731725538350.3125,14.6484375,-267.08984375,-516.11328125,-11.71875,NaN
1731725538354.2188,12.6953125,289.55078125,29.296875,-5.859375,NaN
1731725538358.125,21.97265625,-253.90625,-480.95703125,-27.34375,NaN
1731725538362.0312,29.78515625,-704.1015625,-1000,-28.3203125,NaN
1731725538365.9375,18.06640625,-361.81640625,-760.25390625,-14.16015625,NaN
1731725538369.8438,8.30078125,-187.98828125,-389.6484375,-4.8828125,NaN
1731725538373.75,24.90234375,-645.99609375,-718.75,0.9765625,NaN
1731725538377.6562,20.01953125,-1000,-1000,-9.765625,NaN
1731725538381.5625,13.18359375,-806.15234375,-885.7421875,-8.7890625,NaN
1731725538385.4688,37.109375,-227.5390625,-454.58984375,1.953125,NaN
1731725538389.375,52.24609375,-611.81640625,-667.48046875,-22.4609375,NaN
1731725538393.2812,26.85546875,-962.890625,-1000,-41.50390625,NaN
1731725538397.1875,28.3203125,-392.08984375,-788.0859375,-38.0859375,NaN
1731725538401.0938,20.5078125,-45.41015625,-313.4765625,1.46484375,NaN
1731725538405,44.921875,-270.5078125,-371.09375,3.90625,NaN
1731725538408.9062,56.15234375,-467.28515625,-737.3046875,-21.97265625,NaN
1731725538412.8125,17.08984375,-526.85546875,-954.58984375,0.48828125,NaN
1731725538416.7188,19.53125,-437.5,-713.37890625,-10.7421875,NaN
1731725538420.625,0.9765625,-336.42578125,-474.609375,-41.50390625,NaN
1731725538424.5312,-11.23046875,-650.87890625,-749.51171875,-36.1328125,NaN
1731725538428.4375,-7.8125,-1000,-1000,-40.0390625,NaN
1731725538432.3438,19.04296875,-981.93359375,-993.1640625,-27.83203125,NaN
1731725538436.25,37.109375,-979.98046875,-989.74609375,-15.625,NaN
1731725538440.1562,-15.625,-465.8203125,-638.671875,-29.78515625,NaN
1731725538444.0625,-23.92578125,-328.125,-714.84375,-30.76171875,NaN
1731725538447.9688,33.69140625,-706.0546875,-1000,-22.4609375,NaN
1731725538451.875,25.390625,-349.609375,-541.50390625,14.16015625,NaN
1731725538455.7812,-20.01953125,-141.6015625,-398.92578125,-14.6484375,NaN
1731725538459.6875,-26.85546875,-454.58984375,-808.59375,-28.80859375,NaN
1731725538463.5938,-4.8828125,-859.375,-1000,0.9765625,NaN
1731725538467.5,34.1796875,-708.0078125,-829.58984375,10.7421875,NaN
1731725538471.4062,50.78125,-534.66796875,-726.07421875,-1.953125,NaN
1731725538475.3125,33.69140625,-906.73828125,-966.30859375,-17.578125,NaN
1731725538479.2188,43.9453125,-1000,-1000,-5.859375,NaN
1731725538483.125,59.5703125,-770.5078125,-835.9375,20.99609375,NaN
1731725538487.0312,55.6640625,-257.8125,-430.6640625,11.23046875,NaN
1731725538490.9375,17.08984375,-258.30078125,-552.24609375,-21.97265625,NaN
1731725538494.8438,17.08984375,-881.8359375,-1000,-41.50390625,NaN
1731725538498.75,44.921875,-681.640625,-847.16796875,-26.3671875,NaN
1731725538502.6562,23.92578125,71.2890625,-233.88671875,-14.6484375,NaN
1731725538506.5625,11.23046875,-257.8125,-465.8203125,-30.2734375,NaN
1731725538510.4688,4.8828125,-964.84375,-1000,-41.50390625,NaN
1731725538514.375,-11.23046875,-835.44921875,-1000,-23.92578125,NaN
1731725538518.2812,-0.9765625,-492.67578125,-708.49609375,0,NaN
1731725538522.1875,2.9296875,-625,-666.50390625,-23.92578125,NaN
1731725538526.0938,1.46484375,-986.81640625,-1000,-26.3671875,NaN
1731725538530,-0.9765625,-781.73828125,-1000,-28.3203125,NaN
1731725538533.9062,46.875,-205.078125,-547.8515625,-13.18359375,NaN
1731725538537.8125,71.77734375,-76.66015625,-253.41796875,-7.8125,NaN
1731725538541.7188,-16.6015625,-398.4375,-568.84765625,-38.57421875,NaN
1731725538545.625,-18.06640625,-430.6640625,-784.66796875,-18.5546875,NaN
1731725538549.5312,41.015625,115.72265625,-286.62109375,11.23046875,NaN
1731725538553.4375,19.04296875,-48.828125,-201.66015625,12.6953125,NaN
1731725538557.3438,4.8828125,-478.02734375,-616.69921875,-4.8828125,NaN
1731725538561.25,36.62109375,-431.640625,-812.98828125,-17.578125,NaN
1731725538565.1562,56.640625,-455.078125,-755.859375,9.27734375,NaN
1731725538569.0625,37.59765625,-703.125,-755.37109375,24.90234375,NaN
1731725538572.9688,23.4375,-812.01171875,-897.94921875,-11.71875,NaN
1731725538576.875,15.13671875,-376.46484375,-748.046875,-59.08203125,NaN
1731725538580.7812,22.94921875,-304.19921875,-707.03125,-47.8515625,NaN
1731725538584.6875,37.59765625,-309.08203125,-506.8359375,6.34765625,NaN
1731725538588.5938,-10.25390625,-23.4375,-207.51953125,3.90625,NaN
1731725538592.5,-17.578125,-41.9921875,-414.0625,-31.25,NaN
1731725538596.4062,20.99609375,-522.94921875,-902.34375,-34.1796875,NaN
1731725538600.3125,35.64453125,-571.2890625,-750.9765625,-23.4375,NaN
1731725538604.2188,8.7890625,146.484375,-25.87890625,-31.73828125,NaN
1731725538608.125,-25.390625,160.64453125,-168.9453125,-63.4765625,NaN
1731725538612.0312,-6.34765625,-636.23046875,-896.97265625,-33.69140625,NaN
1731725538615.9375,10.7421875,-1000,-1000,0,NaN
1731725538619.8438,-6.8359375,-351.5625,-422.36328125,-10.7421875,NaN
1731725538623.75,5.37109375,253.41796875,-32.2265625,-24.90234375,NaN
1731725538627.6562,27.34375,-408.203125,-690.91796875,-53.22265625,NaN
1731725538631.5625,39.0625,-701.66015625,-919.43359375,-26.3671875,NaN
1731725538635.4688,41.015625,-61.03515625,-276.85546875,0.48828125,NaN
1731725538639.375,22.4609375,247.0703125,25.87890625,-30.2734375,NaN
1731725538643.2812,31.73828125,-296.38671875,-589.84375,-27.83203125,NaN
1731725538647.1875,50.78125,-503.90625,-848.14453125,27.83203125,NaN
1731725538651.0938,47.8515625,13.18359375,-287.109375,23.4375,NaN
1731725538655,48.33984375,-27.83203125,-237.3046875,-2.44140625,NaN
1731725538658.9062,30.2734375,-689.453125,-770.5078125,0.9765625,NaN
1731725538662.8125,30.76171875,-998.046875,-1000,-14.16015625,NaN
1731725538666.7188,37.109375,-444.3359375,-705.078125,7.32421875,NaN
1731725538670.625,2.9296875,-83.0078125,-348.14453125,-11.23046875,NaN
1731725538674.5312,-8.30078125,-705.078125,-768.06640625,-37.59765625,NaN
1731725538678.4375,0,-878.90625,-1000,-29.78515625,NaN
1731725538682.3438,-5.859375,-389.16015625,-769.04296875,-13.18359375,NaN
1731725538686.25,-12.6953125,-128.41796875,-331.0546875,-13.18359375,NaN
1731725538690.1562,-39.55078125,-494.62890625,-634.765625,-48.33984375,NaN
1731725538694.0625,-38.57421875,-904.78515625,-1000,-47.36328125,NaN
1731725538697.9688,-32.71484375,-690.4296875,-950.1953125,-45.8984375,NaN
1731725538701.875,-28.3203125,-507.8125,-729.4921875,-15.625,NaN
1731725538705.7812,-33.69140625,-784.66796875,-844.7265625,-0.9765625,NaN
1731725538709.6875,-39.0625,-1000,-1000,-46.38671875,NaN
1731725538713.5938,-39.0625,-964.35546875,-993.65234375,-38.0859375,NaN
1731725538717.5,-24.4140625,-858.88671875,-925.78125,-39.55078125,NaN
1731725538721.4062,-14.16015625,-938.4765625,-937.5,-41.9921875,NaN
1731725538725.3125,-38.57421875,-842.28515625,-1000,-31.73828125,NaN
1731725538729.2188,0.48828125,-398.92578125,-786.1328125,-34.1796875,NaN
1731725538733.125,21.97265625,-150.390625,-406.73828125,-15.625,NaN
1731725538737.0312,-27.34375,162.59765625,20.99609375,-9.27734375,NaN
1731725538740.9375,-66.89453125,365.234375,95.703125,-25.390625,NaN
1731725538744.8438,-39.55078125,-82.51953125,-489.74609375,-33.69140625,NaN
1731725538748.75,-3.41796875,-332.51953125,-646.484375,-11.71875,NaN
1731725538752.6562,-5.859375,-255.37109375,-328.125,10.25390625,NaN
1731725538756.5625,-36.1328125,-101.07421875,-186.03515625,1.46484375,NaN
1731725538760.4688,-56.15234375,-227.5390625,-539.55078125,-18.5546875,NaN
1731725538764.375,-35.15625,-814.453125,-1000,3.41796875,NaN
1731725538768.2812,-19.04296875,-581.54296875,-606.93359375,20.01953125,NaN
1731725538772.1875,-30.76171875,19.04296875,-106.93359375,-23.92578125,NaN
1731725538776.0938,-35.15625,-355.95703125,-576.171875,-39.0625,NaN
1731725538780,-27.34375,-743.1640625,-929.19921875,-24.4140625,NaN
1731725538783.9062,-14.6484375,-84.47265625,-258.30078125,-10.7421875,NaN
1731725538787.8125,-11.23046875,469.23828125,255.859375,12.20703125,NaN
1731725538791.7188,-26.85546875,-148.92578125,-366.69921875,-11.23046875,NaN
1731725538795.625,-13.671875,-689.453125,-946.2890625,-28.3203125,NaN
1731725538799.5312,-23.4375,-469.23828125,-656.73828125,-6.34765625,NaN
1731725538803.4375,-51.7578125,-38.0859375,-145.5078125,-9.27734375,NaN
1731725538807.3438,-57.12890625,-256.8359375,-364.2578125,-34.1796875,NaN
1731725538811.25,-24.90234375,-971.6796875,-1000,-30.2734375,NaN
1731725538815.1562,-30.2734375,-520.5078125,-804.6875,0.48828125,NaN
1731725538819.0625,-28.80859375,229.4921875,-47.8515625,6.34765625,NaN
1731725538822.9688,-25.87890625,-24.4140625,-193.359375,-26.3671875,NaN
1731725538826.875,-83.0078125,-723.6328125,-920.8984375,-48.33984375,NaN
1731725538830.7812,-40.0390625,-679.19921875,-927.24609375,-30.2734375,NaN
1731725538834.6875,-7.32421875,94.7265625,-175.29296875,-14.16015625,NaN
1731725538838.5938,-39.55078125,-212.40234375,-317.3828125,-9.765625,NaN
1731725538842.5,-57.6171875,-861.81640625,-1000,-24.90234375,NaN
1731725538846.4062,-19.04296875,-750.48828125,-966.796875,-5.37109375,NaN
1731725538850.3125,-12.6953125,-482.91015625,-625.48828125,17.578125,NaN
1731725538854.2188,-68.359375,-598.6328125,-631.34765625,-1.953125,NaN
1731725538858.125,-61.03515625,-867.67578125,-977.5390625,-41.015625,NaN
1731725538862.0312,-25.87890625,-503.90625,-891.11328125,-49.31640625,NaN
1731725538865.9375,-19.04296875,-282.2265625,-626.953125,-16.6015625,NaN
1731725538869.8438,-13.18359375,-138.671875,-287.59765625,-0.48828125,NaN
1731725538873.75,-34.66796875,-38.0859375,-260.7421875,-16.11328125,NaN
1731725538877.6562,-51.7578125,-284.1796875,-679.19921875,-28.80859375,NaN
1731725538881.5625,-20.99609375,-586.9140625,-895.99609375,-13.671875,NaN
1731725538885.4688,-20.5078125,-478.02734375,-567.87109375,-2.9296875,NaN
1731725538889.375,-42.96875,-37.59765625,-213.8671875,-1.953125,NaN
1731725538893.2812,-87.890625,-613.28125,-768.06640625,-27.34375,NaN
1731725538897.1875,-58.59375,-1000,-1000,-19.53125,NaN
1731725538901.0938,-22.94921875,-959.47265625,-979.00390625,-8.30078125,NaN
1731725538905,-43.9453125,-495.60546875,-596.6796875,-32.2265625,NaN
1731725538908.9062,-58.10546875,-66.89453125,-402.34375,-56.640625,NaN
1731725538912.8125,-58.59375,-564.94140625,-889.16015625,-53.22265625,NaN
1731725538916.7188,-40.0390625,-428.7109375,-650.87890625,-20.5078125,NaN
1731725538920.625,-29.78515625,300.29296875,88.37890625,-8.7890625,NaN
1731725538924.5312,-39.0625,177.24609375,-141.11328125,-28.3203125,NaN
1731725538928.4375,-33.203125,-668.9453125,-913.57421875,-48.828125,NaN
1731725538932.3438,8.7890625,-506.34765625,-688.96484375,-24.4140625,NaN
1731725538936.25,3.41796875,127.9296875,-109.375,-23.4375,NaN
1731725538940.1562,-41.9921875,-377.44140625,-550.29296875,-52.734375,NaN
1731725538944.0625,-15.13671875,-906.25,-997.0703125,-26.3671875,NaN
1731725538947.9688,11.23046875,-818.359375,-899.90234375,0,NaN
1731725538951.875,-5.37109375,7.8125,-229.4921875,0.9765625,NaN
1731725538955.7812,-14.6484375,130.859375,-108.3984375,10.25390625,NaN
1731725538959.6875,-31.73828125,-727.5390625,-865.234375,-13.671875,NaN
1731725538963.5938,-23.92578125,-727.05078125,-983.3984375,-17.578125,NaN
1731725538967.5,-8.7890625,-32.71484375,-368.1640625,-4.39453125,NaN
1731725538971.4062,-9.765625,-92.7734375,-273.92578125,-12.20703125,NaN
1731725538975.3125,-23.92578125,-563.4765625,-783.69140625,-38.0859375,NaN
1731725538979.2188,-12.6953125,-546.38671875,-935.546875,-39.55078125,NaN
1731725538983.125,30.2734375,-170.8984375,-534.66796875,8.30078125,NaN
1731725538987.0312,4.39453125,-336.42578125,-470.21484375,24.90234375,NaN
1731725538990.9375,-37.59765625,-981.93359375,-959.9609375,-4.8828125,NaN
1731725538994.8438,-19.53125,-854.98046875,-1000,-38.57421875,NaN
1731725538998.75,0.48828125,-647.94921875,-979.00390625,-30.2734375,NaN
1731725539002.6562,-8.30078125,-865.234375,-984.86328125,-8.30078125,NaN
1731725539006.5625,-13.671875,-803.7109375,-907.71484375,-15.13671875,NaN
1731725539010.4688,-26.85546875,-636.23046875,-948.2421875,-42.96875,NaN
1731725539014.375,-20.99609375,-583.0078125,-940.4296875,-36.62109375,NaN
1731725539018.2812,-8.7890625,-452.63671875,-691.89453125,8.30078125,NaN
1731725539022.1875,-32.71484375,-260.7421875,-476.07421875,-2.44140625,NaN
1731725539026.0938,-68.84765625,-445.80078125,-727.05078125,-48.828125,NaN
1731725539030,-27.34375,-843.75,-1000,-34.66796875,NaN
1731725539033.9062,-21.97265625,-868.65234375,-968.26171875,8.30078125,NaN
1731725539037.8125,-63.4765625,-726.5625,-768.06640625,4.39453125,NaN
1731725539041.7188,-50.29296875,-329.58984375,-591.30859375,-15.13671875,NaN
