time,TP9,AF7,AF8,TP10,AUX
1731719172728.875,-25.390625,606.93359375,973.14453125,-217.7734375,NaN
1731719172732.7812,227.05078125,925.29296875,999.51171875,-11.23046875,NaN
1731719172736.6875,-245.60546875,16.6015625,541.015625,-44.43359375,NaN
1731719172740.5938,-612.79296875,-481.4453125,347.16796875,-326.66015625,NaN
1731719172744.5,-243.65234375,174.31640625,817.87109375,-367.1875,NaN
1731719172748.4062,128.90625,677.734375,999.51171875,-168.45703125,NaN
1731719172752.3125,-213.37890625,233.3984375,770.99609375,-154.296875,NaN
1731719172756.2188,-660.64453125,-317.87109375,423.33984375,-329.1015625,NaN
1731719172760.125,-435.546875,-690.91796875,171.875,-412.59765625,NaN
1731719172764.0312,-22.4609375,235.83984375,678.7109375,-368.1640625,NaN
1731719172767.9375,-126.46484375,791.9921875,952.63671875,-222.65625,NaN
1731719172771.8438,-593.26171875,-470.21484375,174.31640625,-289.55078125,NaN
1731719172775.75,-642.08984375,-321.77734375,324.21875,-533.203125,NaN
1731719172779.6562,-136.71875,859.375,999.51171875,-442.87109375,NaN
1731719172783.5625,0,926.26953125,985.83984375,-187.5,NaN
1731719172787.4688,-468.75,-204.1015625,268.5546875,-235.83984375,NaN
1731719172791.375,-682.12890625,-692.87109375,-115.72265625,-459.9609375,NaN
1731719172795.2812,-256.34765625,280.2734375,651.3671875,-472.65625,NaN
1731719172799.1875,50.29296875,645.01953125,999.51171875,-271.484375,NaN
1731719172803.0938,-270.01953125,-412.109375,-48.828125,-155.76171875,NaN
1731719172807,-700.1953125,-1000,-924.8046875,-391.6015625,NaN
1731719172810.9062,-484.375,117.67578125,238.76953125,-582.51953125,NaN
1731719172814.8125,55.17578125,999.51171875,999.51171875,-308.10546875,NaN
1731719172818.7188,-144.04296875,219.7265625,394.53125,-158.203125,NaN
1731719172822.625,-680.17578125,-681.15234375,-335.9375,-380.37109375,NaN
1731719172826.5312,-560.05859375,166.9921875,344.7265625,-541.9921875,NaN
1731719172830.4375,12.6953125,999.51171875,999.51171875,-324.70703125,NaN
1731719172834.3438,-5.37109375,482.91015625,563.96484375,-119.140625,NaN
1731719172838.25,-526.85546875,-646.484375,-411.62109375,-257.32421875,NaN
1731719172842.1562,-607.421875,-643.5546875,-392.08984375,-473.6328125,NaN
1731719172846.0625,-89.35546875,480.46875,571.77734375,-376.46484375,NaN
1731719172849.9688,118.1640625,217.7734375,343.26171875,-115.234375,NaN
1731719172853.875,-407.71484375,-658.69140625,-416.015625,-232.91015625,NaN
1731719172857.7812,-677.24609375,-415.52734375,-199.70703125,-457.51953125,NaN
1731719172861.6875,-188.4765625,229.98046875,367.67578125,-383.30078125,NaN
1731719172865.5938,155.2734375,493.1640625,568.359375,-164.55078125,NaN
1731719172869.5,-252.9296875,18.5546875,107.421875,-174.8046875,NaN
1731719172873.4062,-640.625,-395.5078125,-267.578125,-382.8125,NaN
1731719172877.3125,-338.37890625,32.71484375,106.93359375,-424.31640625,NaN
1731719172881.2188,166.9921875,743.1640625,678.22265625,-230.46875,NaN
1731719172885.125,6.8359375,343.75,331.0546875,-99.609375,NaN
1731719172889.0312,-543.9453125,-752.44140625,-526.3671875,-250.48828125,NaN
1731719172892.9375,-444.82421875,-892.578125,-566.40625,-393.5546875,NaN
1731719172896.8438,81.0546875,-36.62109375,136.23046875,-271.484375,NaN
1731719172900.75,26.3671875,632.8125,625.9765625,-167.48046875,NaN
1731719172904.6562,-459.9609375,-64.453125,45.41015625,-213.37890625,NaN
1731719172908.5625,-567.87109375,-306.15234375,-112.79296875,-416.50390625,NaN
1731719172912.4688,-64.453125,628.90625,628.90625,-359.86328125,NaN
1731719172916.375,191.40625,768.5546875,724.12109375,-92.28515625,NaN
1731719172920.2812,-259.27734375,-116.2109375,41.015625,-136.71875,NaN
1731719172924.1875,-564.94140625,-826.66015625,-524.90234375,-363.76953125,NaN
1731719172928.0938,-214.35546875,102.5390625,252.9296875,-407.2265625,NaN
1731719172932,212.40234375,925.78125,918.45703125,-147.94921875,NaN
1731719172935.9062,-63.96484375,-113.28125,120.60546875,-19.04296875,NaN
1731719172939.8125,-510.7421875,-1000,-842.7734375,-219.7265625,NaN
1731719172943.7188,-349.12109375,-264.6484375,-216.30859375,-420.41015625,NaN
1731719172947.625,115.234375,999.51171875,999.51171875,-245.60546875,NaN
1731719172951.5312,45.8984375,326.171875,422.8515625,-32.2265625,NaN
1731719172955.4375,-464.35546875,-899.4140625,-598.6328125,-217.28515625,NaN
1731719172959.3438,-481.4453125,-242.67578125,-79.1015625,-428.22265625,NaN
1731719172963.25,59.5703125,999.51171875,972.65625,-277.83203125,NaN
1731719172967.1562,236.81640625,375.9765625,491.69921875,13.18359375,NaN
1731719172971.0625,-317.3828125,-1000,-809.08203125,-67.87109375,NaN
1731719172974.9688,-588.8671875,-850.5859375,-693.84765625,-350.09765625,NaN
1731719172978.875,-124.0234375,558.10546875,634.765625,-369.62890625,NaN
1731719172982.7812,248.046875,415.52734375,561.5234375,-40.0390625,NaN
1731719172986.6875,-172.8515625,-994.140625,-736.81640625,-10.7421875,NaN
1731719172990.5938,-643.06640625,-846.6796875,-620.60546875,-352.5390625,NaN
1731719172994.5,-229.98046875,356.93359375,487.3046875,-330.56640625,NaN
1731719172998.4062,230.46875,560.546875,695.80078125,-43.45703125,NaN
1731719173002.3125,-96.19140625,-333.49609375,-42.48046875,-13.671875,NaN
1731719173006.2188,-574.70703125,-636.71875,-313.96484375,-230.46875,NaN
1731719173010.125,-387.6953125,32.2265625,277.83203125,-322.75390625,NaN
1731719173014.0312,99.609375,840.33203125,988.76953125,-168.45703125,NaN
1731719173017.9375,19.04296875,360.3515625,560.546875,-6.8359375,NaN
1731719173021.8438,-483.88671875,-441.40625,-106.93359375,-131.34765625,NaN
1731719173025.75,-476.07421875,-277.34375,98.6328125,-291.50390625,NaN
1731719173029.6562,51.26953125,300.29296875,622.0703125,-176.26953125,NaN
1731719173033.5625,177.734375,176.26953125,550.29296875,11.23046875,NaN
1731719173037.4688,-313.96484375,-656.73828125,-180.6640625,-61.5234375,NaN
1731719173041.375,-582.51953125,-713.8671875,-263.18359375,-248.53515625,NaN
1731719173045.2812,-116.2109375,-394.04296875,78.125,-187.98828125,NaN
1731719173049.1875,116.69921875,297.8515625,646.484375,-87.40234375,NaN
1731719173053.0938,-283.203125,316.89453125,587.40234375,-76.171875,NaN
1731719173057,-583.984375,-599.609375,-137.20703125,-197.265625,NaN
1731719173060.9062,-275.390625,96.6796875,392.578125,-281.25,NaN
1731719173064.8125,152.83203125,999.51171875,999.51171875,-81.54296875,NaN
1731719173068.7188,-55.6640625,463.37890625,686.03515625,65.91796875,NaN
1731719173072.625,-496.09375,-673.33984375,-157.71484375,-97.65625,NaN
1731719173076.5312,-358.3984375,-685.546875,-140.13671875,-243.65234375,NaN
1731719173080.4375,113.28125,392.08984375,708.984375,-118.65234375,NaN
1731719173084.3438,70.3125,338.37890625,700.68359375,53.22265625,NaN
1731719173088.25,-362.79296875,-818.84765625,-536.1328125,26.85546875,NaN
1731719173092.1562,-458.0078125,-814.453125,-720.21484375,-213.8671875,NaN
1731719173096.0625,-37.109375,505.859375,625,-262.20703125,NaN
1731719173099.9688,163.57421875,836.42578125,994.62890625,22.94921875,NaN
1731719173103.875,-275.87890625,-514.6484375,-147.4609375,11.71875,NaN
1731719173107.7812,-575.1953125,-747.0703125,-327.63671875,-270.5078125,NaN
1731719173111.6875,-174.31640625,557.6171875,733.3984375,-265.625,NaN
1731719173115.5938,238.76953125,994.140625,999.51171875,-24.4140625,NaN
1731719173119.5,-76.66015625,-95.21484375,251.46484375,64.453125,NaN
1731719173123.4062,-518.06640625,-1000,-553.7109375,-145.5078125,NaN
1731719173127.3125,-318.84765625,-130.859375,235.3515625,-320.3125,NaN
1731719173131.2188,156.73828125,955.56640625,999.51171875,-97.65625,NaN
1731719173135.125,17.578125,-178.7109375,162.59765625,70.80078125,NaN
1731719173139.0312,-479.4921875,-926.26953125,-418.9453125,-181.640625,NaN
1731719173142.9375,-376.46484375,-155.76171875,203.125,-292.96875,NaN
1731719173146.8438,127.9296875,497.0703125,743.1640625,-93.26171875,NaN
1731719173150.75,136.23046875,143.5546875,479.00390625,74.70703125,NaN
1731719173154.6562,-394.04296875,-524.4140625,-137.20703125,-79.1015625,NaN
1731719173158.5625,-484.86328125,-182.6171875,109.86328125,-272.4609375,NaN
1731719173162.4688,32.2265625,666.015625,824.21875,-183.59375,NaN
1731719173166.375,211.9140625,935.546875,998.53515625,7.8125,NaN
1731719173170.2812,-196.77734375,-104.00390625,184.5703125,16.11328125,NaN
1731719173174.1875,-478.02734375,-442.87109375,-88.8671875,-238.76953125,NaN
1731719173178.0938,-38.0859375,179.6875,407.2265625,-217.7734375,NaN
1731719173182,283.203125,234.86328125,452.63671875,-2.44140625,NaN
1731719173185.9062,-147.94921875,349.609375,502.9296875,-45.8984375,NaN
1731719173189.8125,-468.75,-221.19140625,5.859375,-168.45703125,NaN
1731719173193.7188,-248.53515625,88.37890625,258.7890625,-263.671875,NaN
1731719173197.625,159.1796875,999.51171875,999.51171875,-111.81640625,NaN
1731719173201.5312,79.58984375,613.28125,719.7265625,50.29296875,NaN
1731719173205.4375,-378.41796875,-389.16015625,-70.80078125,-115.234375,NaN
1731719173209.3438,-333.49609375,-428.22265625,-122.0703125,-304.6875,NaN
1731719173213.25,117.1875,695.80078125,775.87890625,-203.125,NaN
1731719173217.1562,153.80859375,609.86328125,713.8671875,51.7578125,NaN
1731719173221.0625,-293.45703125,-735.3515625,-376.46484375,-19.53125,NaN
1731719173224.9688,-458.49609375,-954.58984375,-706.0546875,-259.765625,NaN
1731719173228.875,-72.75390625,308.59375,338.8671875,-301.26953125,NaN
1731719173232.7812,197.75390625,999.51171875,999.51171875,-59.08203125,NaN
1731719173236.6875,-103.515625,-76.171875,104.4921875,49.8046875,NaN
1731719173240.5938,-478.02734375,-686.5234375,-364.74609375,-200.68359375,NaN
1731719173244.5,-213.37890625,542.96875,660.64453125,-302.734375,NaN
1731719173248.4062,232.421875,999.51171875,999.51171875,-51.7578125,NaN
1731719173252.3125,9.765625,355.46875,512.20703125,71.2890625,NaN
1731719173256.2188,-438.96484375,-497.55859375,-182.12890625,-157.2265625,NaN
1731719173260.125,-251.46484375,113.76953125,346.6796875,-277.83203125,NaN
1731719173264.0312,236.328125,989.74609375,999.51171875,-77.63671875,NaN
1731719173267.9375,146.484375,220.21484375,397.4609375,77.1484375,NaN
1731719173271.8438,-378.41796875,-832.03125,-454.1015625,-87.890625,NaN
1731719173275.75,-421.875,-0.48828125,216.796875,-306.640625,NaN
1731719173279.6562,92.28515625,999.51171875,999.51171875,-217.7734375,NaN
1731719173283.5625,293.9453125,352.05078125,488.76953125,128.41796875,NaN
1731719173287.4688,-193.84765625,-1000,-755.859375,59.5703125,NaN
1731719173291.375,-509.27734375,-542.96875,-301.26953125,-326.171875,NaN
1731719173295.2812,-54.19921875,661.62109375,764.6484375,-273.92578125,NaN
1731719173299.1875,256.8359375,843.75,880.859375,3.90625,NaN
1731719173303.0938,-124.51171875,-189.94140625,21.97265625,0,NaN
1731719173307,-496.09375,-689.453125,-375.9765625,-242.1875,NaN
1731719173310.9062,-165.52734375,4.8828125,263.671875,-253.90625,NaN
1731719173314.8125,303.7109375,-39.0625,286.62109375,-32.71484375,NaN
1731719173318.7188,-5.37109375,-641.11328125,-228.02734375,-10.7421875,NaN
1731719173322.625,-492.1875,-687.98828125,-361.328125,-222.16796875,NaN
1731719173326.5312,-296.38671875,-276.3671875,-17.578125,-282.2265625,NaN
1731719173330.4375,167.48046875,347.65625,554.19921875,-130.859375,NaN
1731719173334.3438,88.8671875,333.0078125,517.578125,-15.13671875,NaN
1731719173338.25,-334.9609375,-489.2578125,-210.44921875,-110.3515625,NaN
1731719173342.1562,-405.2734375,-396.97265625,-71.2890625,-296.38671875,NaN
1731719173346.0625,31.25,578.125,704.1015625,-226.07421875,NaN
1731719173349.9688,196.77734375,899.4140625,945.80078125,-16.6015625,NaN
1731719173353.875,-209.9609375,-99.609375,160.15625,-13.671875,NaN
1731719173357.7812,-432.12890625,-977.5390625,-563.4765625,-194.82421875,NaN
1731719173361.6875,-88.37890625,-293.9453125,28.80859375,-239.2578125,NaN
1731719173365.5938,199.70703125,724.609375,841.30859375,-89.35546875,NaN
1731719173369.5,-103.515625,191.40625,416.015625,-20.5078125,NaN
1731719173373.4062,-401.3671875,-959.47265625,-745.1171875,-111.81640625,NaN
1731719173377.3125,-172.36328125,-486.81640625,-473.14453125,-249.0234375,NaN
1731719173381.2188,159.66796875,992.67578125,980.95703125,-207.51953125,NaN
1731719173385.125,57.6171875,490.234375,588.37890625,1.953125,NaN
1731719173389.0312,-418.45703125,-855.46875,-486.81640625,-119.62890625,NaN
1731719173392.9375,-400.390625,-252.44140625,45.8984375,-331.54296875,NaN
1731719173396.8438,128.90625,985.83984375,999.51171875,-207.03125,NaN
1731719173400.75,197.265625,536.62109375,671.38671875,40.52734375,NaN
1731719173404.6562,-265.625,-869.62890625,-699.70703125,-49.31640625,NaN
1731719173408.5625,-514.16015625,-818.84765625,-679.19921875,-342.28515625,NaN
1731719173412.4688,-113.76953125,624.0234375,735.83984375,-298.828125,NaN
1731719173416.375,219.7265625,641.6015625,761.71875,-6.8359375,NaN
1731719173420.2812,-166.015625,-819.82421875,-676.7578125,-7.8125,NaN
1731719173424.1875,-552.24609375,-1000,-901.3671875,-354.00390625,NaN
1731719173428.0938,-198.73046875,159.1796875,311.5234375,-379.39453125,NaN
1731719173432,263.18359375,330.078125,479.4921875,-57.6171875,NaN
1731719173435.9062,-39.0625,-748.046875,-426.26953125,-36.62109375,NaN
1731719173439.8125,-573.73046875,-915.0390625,-630.37109375,-331.54296875,NaN
1731719173443.7188,-372.55859375,33.69140625,149.4140625,-412.59765625,NaN
1731719173447.625,140.13671875,604.98046875,682.12890625,-161.1328125,NaN
1731719173451.5312,-17.578125,-235.83984375,17.578125,-11.23046875,NaN
1731719173455.4375,-535.64453125,-1000,-634.765625,-240.234375,NaN
1731719173459.3438,-510.25390625,-144.04296875,75.68359375,-445.80078125,NaN
1731719173463.25,59.5703125,385.7421875,530.2734375,-212.890625,NaN
1731719173467.1562,129.39453125,-376.953125,-110.3515625,-17.08984375,NaN
1731719173471.0625,-401.3671875,-793.9453125,-582.51953125,-197.75390625,NaN
1731719173474.9688,-527.34375,-816.40625,-635.7421875,-359.86328125,NaN
1731719173478.875,-151.85546875,80.078125,183.59375,-334.9609375,NaN
1731719173482.7812,94.7265625,666.9921875,686.03515625,-140.625,NaN
1731719173486.6875,-209.47265625,-285.15625,-187.5,-87.40234375,NaN
1731719173490.5938,-533.203125,-1000,-949.21875,-305.6640625,NaN
1731719173494.5,-255.859375,-390.13671875,-258.7890625,-399.4140625,NaN
1731719173498.4062,145.01953125,352.05078125,394.53125,-165.52734375,NaN
1731719173502.3125,-120.60546875,-402.83203125,-288.57421875,-56.640625,NaN
1731719173506.2188,-578.61328125,-983.3984375,-809.08203125,-275.87890625,NaN
1731719173510.125,-318.359375,-1000,-897.4609375,-311.5234375,NaN
1731719173514.0312,106.93359375,-311.03515625,-304.19921875,-210.9375,NaN
1731719173517.9375,-47.36328125,332.03125,226.5625,-115.72265625,NaN
1731719173521.8438,-461.42578125,-751.953125,-745.60546875,-165.52734375,NaN
1731719173525.75,-468.75,-596.19140625,-648.92578125,-374.0234375,NaN
1731719173529.6562,22.94921875,670.41015625,434.08203125,-286.62109375,NaN
1731719173533.5625,160.15625,520.5078125,294.921875,-41.9921875,NaN
1731719173537.4688,-274.90234375,-640.625,-702.63671875,-83.984375,NaN
1731719173541.375,-510.7421875,-744.62890625,-788.57421875,-321.77734375,NaN
1731719173545.2812,-139.6484375,254.39453125,20.01953125,-320.80078125,NaN
1731719173549.1875,135.7421875,608.3984375,261.23046875,-130.37109375,NaN
1731719173553.0938,-139.6484375,-391.11328125,-504.8828125,-42.48046875,NaN
1731719173557,-551.7578125,-989.2578125,-1000,-239.2578125,NaN
1731719173560.9062,-418.9453125,263.671875,-187.01171875,-448.2421875,NaN
1731719173564.8125,100.5859375,999.51171875,625,-204.58984375,NaN
1731719173568.7188,-87.890625,300.78125,-311.5234375,-86.9140625,NaN
1731719173572.625,-557.6171875,-564.94140625,-1000,-304.19921875,NaN
1731719173576.5312,-392.08984375,115.234375,-552.734375,-399.90234375,NaN
1731719173580.4375,105.95703125,992.1875,248.53515625,-213.8671875,NaN
1731719173584.3438,91.30859375,402.83203125,-260.7421875,-15.625,NaN
1731719173588.25,-384.765625,-713.8671875,-1000,-126.953125,NaN
1731719173592.1562,-466.796875,-926.26953125,-1000,-308.10546875,NaN
1731719173596.0625,-26.3671875,18.06640625,-488.28125,-244.62890625,NaN
1731719173599.9688,188.96484375,-250.9765625,-586.9140625,0.9765625,NaN
1731719173603.875,-255.859375,-1000,-1000,-76.66015625,NaN
1731719173607.7812,-576.171875,-814.94140625,-956.54296875,-359.375,NaN
1731719173611.6875,-132.8125,75.1953125,-389.6484375,-295.41015625,NaN
1731719173615.5938,248.046875,245.60546875,-209.9609375,-40.52734375,NaN
1731719173619.5,-191.40625,-394.04296875,-744.140625,-92.7734375,NaN
1731719173623.4062,-573.73046875,-673.33984375,-975.5859375,-278.3203125,NaN
1731719173627.3125,-232.421875,-80.56640625,-438.96484375,-279.296875,NaN
1731719173631.2188,189.453125,725.5859375,284.1796875,-109.375,NaN
1731719173635.125,4.39453125,250.48828125,-101.07421875,-10.25390625,NaN
1731719173639.0312,-429.6875,-839.35546875,-918.45703125,-158.69140625,NaN
1731719173642.9375,-317.87109375,-889.16015625,-856.4453125,-240.72265625,NaN
1731719173646.8438,82.03125,36.62109375,-56.640625,-140.625,NaN
1731719173650.75,51.26953125,545.8984375,304.19921875,-41.50390625,NaN
1731719173654.6562,-323.2421875,-374.0234375,-475.09765625,-103.515625,NaN
1731719173658.5625,-437.5,-652.83203125,-621.09375,-295.41015625,NaN
1731719173662.4688,7.8125,406.25,296.38671875,-232.91015625,NaN
1731719173666.375,210.44921875,865.72265625,615.234375,-3.90625,NaN
1731719173670.2812,-172.36328125,-231.93359375,-321.2890625,-7.8125,NaN
1731719173674.1875,-440.4296875,-940.91796875,-910.15625,-233.88671875,NaN
1731719173678.0938,-168.9453125,137.6953125,23.92578125,-289.55078125,NaN
1731719173682,163.0859375,999.51171875,876.953125,-64.94140625,NaN
1731719173685.9062,-41.9921875,78.125,82.51953125,39.55078125,NaN
1731719173689.8125,-387.6953125,-1000,-998.53515625,-140.13671875,NaN
1731719173693.7188,-269.53125,-335.44921875,-420.8984375,-329.1015625,NaN
1731719173697.625,118.65234375,999.51171875,914.0625,-188.4765625,NaN
1731719173701.5312,79.1015625,502.44140625,416.50390625,48.33984375,NaN
1731719173705.4375,-357.91015625,-777.83203125,-719.7265625,-113.76953125,NaN
1731719173709.3438,-384.27734375,-176.26953125,-259.765625,-327.1484375,NaN
1731719173713.25,82.51953125,999.51171875,924.31640625,-196.2890625,NaN
1731719173717.1562,215.8203125,441.40625,447.265625,67.3828125,NaN
1731719173721.0625,-262.20703125,-900.390625,-839.84375,-27.83203125,NaN
1731719173724.9688,-503.41796875,-440.91796875,-483.3984375,-313.4765625,NaN
1731719173728.875,-57.12890625,833.984375,630.37109375,-258.7890625,NaN
1731719173732.7812,266.11328125,520.99609375,426.7578125,40.52734375,NaN
1731719173736.6875,-122.0703125,-866.69921875,-777.83203125,22.94921875,NaN
1731719173740.5938,-516.6015625,-585.9375,-627.44140625,-315.4296875,NaN
1731719173744.5,-190.91796875,599.609375,461.42578125,-308.10546875,NaN
1731719173748.4062,188.96484375,895.5078125,836.9140625,-60.05859375,NaN
1731719173752.3125,-56.640625,194.82421875,90.8203125,-4.39453125,NaN
1731719173756.2188,-449.70703125,-497.55859375,-574.70703125,-222.16796875,NaN
1731719173760.125,-286.62109375,59.08203125,-92.28515625,-320.3125,NaN
1731719173764.0312,138.671875,952.1484375,680.17578125,-170.8984375,NaN
1731719173767.9375,68.359375,564.453125,339.35546875,-7.32421875,NaN
1731719173771.8438,-373.046875,-583.0078125,-644.04296875,-65.91796875,NaN
1731719173775.75,-372.55859375,-489.74609375,-507.32421875,-236.81640625,NaN
1731719173779.6562,141.11328125,-119.62890625,-130.859375,-105.46875,NaN
1731719173783.5625,208.49609375,-248.53515625,-268.06640625,63.96484375,NaN
1731719173787.4688,-264.16015625,-506.8359375,-533.203125,-53.22265625,NaN
1731719173791.375,-453.61328125,-867.1875,-855.95703125,-269.04296875,NaN
1731719173795.2812,-72.75390625,140.13671875,28.80859375,-237.79296875,NaN
1731719173799.1875,189.453125,993.1640625,765.625,-29.296875,NaN
1731719173803.0938,-150.87890625,182.12890625,25.87890625,-2.44140625,NaN
1731719173807,-471.19140625,-747.0703125,-752.44140625,-209.9609375,NaN
1731719173810.9062,-205.078125,15.625,-59.08203125,-315.4296875,NaN
1731719173814.8125,209.47265625,999.51171875,925.29296875,-110.83984375,NaN
1731719173818.7188,15.625,441.89453125,257.32421875,22.4609375,NaN
1731719173822.625,-418.9453125,-814.94140625,-877.9296875,-153.3203125,NaN
1731719173826.5312,-305.6640625,-577.1484375,-625,-292.96875,NaN
1731719173830.4375,141.11328125,621.58203125,392.08984375,-143.5546875,NaN
1731719173834.3438,107.91015625,459.47265625,206.0546875,12.6953125,NaN
1731719173838.25,-333.984375,-695.3125,-764.16015625,-60.05859375,NaN
1731719173842.1562,-441.40625,-857.421875,-916.9921875,-311.5234375,NaN
1731719173846.0625,-61.5234375,513.18359375,179.6875,-332.51953125,NaN
1731719173849.9688,136.23046875,939.453125,437.98828125,-52.734375,NaN
1731719173853.875,-281.73828125,-470.703125,-680.6640625,-80.078125,NaN
1731719173857.7812,-553.7109375,-744.62890625,-922.36328125,-323.2421875,NaN
1731719173861.6875,-188.96484375,602.05078125,119.140625,-332.03125,NaN
1731719173865.5938,131.8359375,999.51171875,595.703125,-105.95703125,NaN
1731719173869.5,-155.2734375,177.24609375,-235.83984375,-72.265625,NaN
1731719173873.4062,-506.34765625,-657.71484375,-972.16796875,-249.0234375,NaN
1731719173877.3125,-321.2890625,187.5,-166.50390625,-382.32421875,NaN
1731719173881.2188,89.84375,999.51171875,717.28515625,-195.3125,NaN
1731719173885.125,-5.859375,-95.703125,-306.640625,12.20703125,NaN
1731719173889.0312,-519.53125,-1000,-1000,-242.67578125,NaN
1731719173892.9375,-495.60546875,163.57421875,-280.76171875,-438.4765625,NaN
1731719173896.8438,78.61328125,999.51171875,568.359375,-203.125,NaN
1731719173900.75,132.32421875,278.3203125,-86.9140625,-23.4375,NaN
1731719173904.6562,-390.625,-561.5234375,-929.19921875,-202.63671875,NaN
1731719173908.5625,-513.18359375,-269.53125,-680.6640625,-399.4140625,NaN
1731719173912.4688,-28.3203125,626.953125,61.03515625,-314.94140625,NaN
1731719173916.375,179.6875,699.70703125,87.40234375,-98.6328125,NaN
1731719173920.2812,-235.83984375,-398.4375,-675.29296875,-112.79296875,NaN
1731719173924.1875,-529.78515625,-1000,-1000,-353.515625,NaN
1731719173928.0938,-200.1953125,-184.08203125,-551.7578125,-376.953125,NaN
1731719173932,124.0234375,672.36328125,104.00390625,-199.70703125,NaN
1731719173935.9062,-166.015625,110.83984375,-375,-121.09375,NaN
1731719173939.8125,-510.7421875,-541.50390625,-928.22265625,-255.37109375,NaN
1731719173943.7188,-208.0078125,-521.484375,-844.23828125,-272.94921875,NaN
1731719173947.625,150.87890625,20.5078125,-333.49609375,-141.11328125,NaN
1731719173951.5312,-11.71875,476.07421875,-10.7421875,-102.5390625,NaN
1731719173955.4375,-358.3984375,-413.0859375,-759.27734375,-176.7578125,NaN
1731719173959.3438,-396.484375,-208.49609375,-573.2421875,-350.5859375,NaN
1731719173963.25,9.765625,928.22265625,644.53125,-266.11328125,NaN
1731719173967.1562,151.3671875,700.1953125,504.8828125,-12.20703125,NaN
1731719173971.0625,-276.85546875,-464.84375,-664.0625,-62.5,NaN
1731719173974.9688,-454.58984375,-941.40625,-1000,-292.96875,NaN
1731719173978.875,-72.265625,228.515625,10.7421875,-324.70703125,NaN
1731719173982.7812,189.453125,999.51171875,810.05859375,-92.7734375,NaN
1731719173986.6875,-120.1171875,52.734375,-206.54296875,9.27734375,NaN
1731719173990.5938,-437.5,-450.68359375,-697.75390625,-251.46484375,NaN
1731719173994.5,-155.76171875,578.125,416.50390625,-340.8203125,NaN
1731719173998.4062,221.6796875,999.51171875,999.51171875,-94.23828125,NaN
1731719174002.3125,50.29296875,166.015625,-60.05859375,35.64453125,NaN
1731719174006.2188,-409.66796875,-872.0703125,-943.359375,-172.8515625,NaN
1731719174010.125,-310.05859375,226.07421875,2.44140625,-303.7109375,NaN
1731719174014.0312,196.77734375,999.51171875,747.0703125,-133.30078125,NaN
1731719174017.9375,174.8046875,68.359375,-124.0234375,60.546875,NaN
1731719174021.8438,-312.01171875,-1000,-1000,-78.125,NaN
1731719174025.75,-458.984375,-266.6015625,-415.0390625,-406.73828125,NaN
1731719174029.6562,41.9921875,999.51171875,863.76953125,-239.2578125,NaN
1731719174033.5625,216.796875,447.75390625,399.4140625,38.57421875,NaN
1731719174037.4688,-255.37109375,-704.58984375,-755.37109375,-51.26953125,NaN
1731719174041.375,-477.05078125,-440.91796875,-569.3359375,-302.24609375,NaN
1731719174045.2812,-46.38671875,630.859375,379.8828125,-269.04296875,NaN
1731719174049.1875,224.12109375,888.18359375,607.421875,-66.40625,NaN
1731719174053.0938,-132.8125,-151.85546875,-372.0703125,-31.25,NaN
1731719174057,-446.77734375,-830.56640625,-939.94140625,-222.16796875,NaN
1731719174060.9062,-142.08984375,-192.87109375,-372.55859375,-291.50390625,NaN
1731719174064.8125,276.3671875,-294.43359375,-433.59375,-60.546875,NaN
1731719174068.7188,0.48828125,-890.625,-944.3359375,-18.5546875,NaN
1731719174072.625,-516.11328125,-821.2890625,-945.3125,-262.6953125,NaN
1731719174076.5312,-354.98046875,-371.58203125,-538.57421875,-336.9140625,NaN
1731719174080.4375,132.32421875,382.32421875,137.20703125,-168.9453125,NaN
1731719174084.3438,76.66015625,465.8203125,150.87890625,-87.890625,NaN
1731719174088.25,-362.79296875,-439.94140625,-655.2734375,-169.43359375,NaN
1731719174092.1562,-375,-752.9296875,-949.21875,-293.45703125,NaN
1731719174096.0625,8.30078125,336.9140625,24.90234375,-290.0390625,NaN
1731719174099.9688,108.88671875,844.7265625,458.984375,-126.46484375,NaN
1731719174103.875,-239.74609375,-264.16015625,-511.23046875,-123.53515625,NaN
1731719174107.7812,-432.6171875,-1000,-1000,-258.7890625,NaN
1731719174111.6875,-137.20703125,-389.16015625,-505.37109375,-287.109375,NaN
1731719174115.5938,100.09765625,717.7734375,389.16015625,-178.22265625,NaN
1731719174119.5,-122.0703125,-144.04296875,-293.9453125,-83.984375,NaN
1731719174123.4062,-433.10546875,-1000,-1000,-211.42578125,NaN
1731719174127.3125,-275.390625,-345.703125,-476.5625,-352.05078125,NaN
1731719174131.2188,97.16796875,963.8671875,635.25390625,-221.6796875,NaN
1731719174135.125,11.23046875,300.78125,97.16796875,-56.15234375,NaN
1731719174139.0312,-442.87109375,-886.23046875,-894.53125,-231.4453125,NaN
1731719174142.9375,-397.94921875,-312.98828125,-409.1796875,-412.59765625,NaN
1731719174146.8438,47.8515625,900.390625,578.125,-283.203125,NaN
1731719174150.75,83.984375,598.14453125,343.75,-92.7734375,NaN
1731719174154.6562,-338.8671875,-794.921875,-796.38671875,-160.64453125,NaN
1731719174158.5625,-523.92578125,-810.05859375,-840.8203125,-416.50390625,NaN
1731719174162.4688,-107.91015625,598.6328125,302.734375,-383.7890625,NaN
1731719174166.375,214.84375,665.52734375,338.8671875,-87.40234375,NaN
1731719174170.2812,-184.08203125,-739.2578125,-788.0859375,-103.02734375,NaN
1731719174174.1875,-577.1484375,-1000,-1000,-400.87890625,NaN
1731719174178.0938,-231.93359375,277.34375,121.58203125,-407.2265625,NaN
1731719174182,169.43359375,830.56640625,686.5234375,-126.953125,NaN
1731719174185.9062,-103.02734375,-424.31640625,-463.8671875,-80.078125,NaN
1731719174189.8125,-546.875,-812.98828125,-869.62890625,-341.796875,NaN
1731719174193.7188,-305.17578125,188.96484375,-37.109375,-390.625,NaN
1731719174197.625,172.8515625,839.35546875,503.41796875,-163.57421875,NaN
1731719174201.5312,57.12890625,-22.4609375,-204.1015625,-20.5078125,NaN
1731719174205.4375,-398.4375,-1000,-1000,-201.171875,NaN
1731719174209.3438,-381.8359375,-362.79296875,-493.1640625,-387.20703125,NaN
1731719174213.25,127.44140625,358.3984375,103.515625,-198.2421875,NaN
1731719174217.1562,164.55078125,-226.07421875,-404.78515625,-7.8125,NaN
1731719174221.0625,-348.14453125,-660.15625,-817.3828125,-173.828125,NaN
1731719174224.9688,-464.35546875,-580.56640625,-759.27734375,-365.72265625,NaN
1731719174228.875,-87.890625,468.75,137.6953125,-346.6796875,NaN
1731719174232.7812,148.4375,792.96875,428.22265625,-132.8125,NaN
1731719174236.6875,-180.17578125,-4.8828125,-269.53125,-114.2578125,NaN
1731719174240.5938,-470.703125,-331.0546875,-559.08203125,-287.109375,NaN
1731719174244.5,-170.41015625,410.64453125,104.4921875,-310.05859375,NaN
1731719174248.4062,210.44921875,861.328125,485.3515625,-99.609375,NaN
1731719174252.3125,-11.71875,-33.69140625,-335.44921875,-15.13671875,NaN
1731719174256.2188,-389.16015625,-862.79296875,-1000,-176.26953125,NaN
1731719174260.125,-171.875,-1000,-1000,-245.1171875,NaN
1731719174264.0312,168.9453125,-167.48046875,-436.5234375,-173.33984375,NaN
1731719174267.9375,35.64453125,554.6875,38.0859375,-61.03515625,NaN
1731719174271.8438,-336.42578125,-545.8984375,-837.40234375,-111.328125,NaN
1731719174275.75,-372.55859375,-277.34375,-624.0234375,-322.75390625,NaN
1731719174279.6562,61.5234375,956.0546875,494.140625,-250.48828125,NaN
1731719174283.5625,207.51953125,921.38671875,477.5390625,-18.06640625,NaN
1731719174287.4688,-143.5546875,-319.3359375,-599.12109375,-24.90234375,NaN
1731719174291.375,-377.44140625,-743.65234375,-865.72265625,-256.8359375,NaN
1731719174295.2812,-31.25,445.3125,39.55078125,-277.83203125,NaN
1731719174299.1875,261.23046875,981.4453125,412.109375,-62.5,NaN
1731719174303.0938,12.20703125,-102.5390625,-394.53125,53.7109375,NaN
1731719174307,-352.5390625,-1000,-1000,-160.15625,NaN
1731719174310.9062,-232.91015625,169.921875,-223.14453125,-337.890625,NaN
1731719174314.8125,261.71875,999.51171875,609.375,-69.3359375,NaN
1731719174318.7188,80.078125,143.5546875,-284.1796875,36.62109375,NaN
1731719174322.625,-432.6171875,-793.45703125,-1000,-186.03515625,NaN
1731719174326.5312,-334.9609375,72.265625,-379.39453125,-334.47265625,NaN
1731719174330.4375,136.23046875,999.51171875,588.8671875,-151.3671875,NaN
1731719174334.3438,114.74609375,459.47265625,96.6796875,41.50390625,NaN
1731719174338.25,-302.24609375,-574.70703125,-885.7421875,-87.890625,NaN
1731719174342.1562,-381.8359375,-581.0546875,-833.0078125,-267.578125,NaN
1731719174346.0625,9.765625,500,42.48046875,-216.30859375,NaN
1731719174349.9688,251.46484375,25.390625,-276.85546875,72.265625,NaN
1731719174353.875,-195.3125,-1000,-1000,-20.5078125,NaN
1731719174357.7812,-521.484375,-600.5859375,-817.87109375,-352.05078125,NaN
1731719174361.6875,-89.84375,515.13671875,4.39453125,-262.20703125,NaN
1731719174365.5938,237.79296875,995.1171875,450.1953125,-29.296875,NaN
1731719174369.5,-89.84375,314.453125,-156.73828125,-32.71484375,NaN
1731719174373.4062,-426.26953125,-385.25390625,-766.11328125,-224.609375,NaN
1731719174377.3125,-171.875,101.07421875,-335.9375,-260.25390625,NaN
1731719174381.2188,198.2421875,891.11328125,382.8125,-111.81640625,NaN
1731719174385.125,41.015625,483.88671875,-8.30078125,11.23046875,NaN
1731719174389.0312,-348.14453125,-707.03125,-907.2265625,-104.98046875,NaN
1731719174392.9375,-244.62890625,-859.86328125,-964.35546875,-232.91015625,NaN
1731719174396.8438,183.10546875,-95.21484375,-413.0859375,-120.60546875,NaN
1731719174400.75,112.3046875,458.49609375,-21.97265625,-31.25,NaN
1731719174404.6562,-279.78515625,-520.5078125,-716.30859375,-58.59375,NaN
1731719174408.5625,-348.6328125,-1000,-1000,-218.26171875,NaN
1731719174412.4688,19.53125,224.12109375,-85.9375,-253.41796875,NaN
1731719174416.375,211.9140625,996.09375,583.49609375,-39.55078125,NaN
1731719174420.2812,-121.09375,-225.5859375,-528.3203125,4.8828125,NaN
1731719174424.1875,-437.98828125,-807.12890625,-1000,-238.76953125,NaN
1731719174428.0938,-148.4375,385.25390625,44.43359375,-285.15625,NaN
1731719174432,253.41796875,999.51171875,626.46484375,-28.3203125,NaN
1731719174435.9062,37.109375,-67.3828125,-396.97265625,90.33203125,NaN
1731719174439.8125,-388.18359375,-1000,-1000,-111.328125,NaN
1731719174443.7188,-303.7109375,-170.41015625,-427.734375,-320.3125,NaN
1731719174447.625,138.671875,999.51171875,579.1015625,-146.97265625,NaN
1731719174451.5312,81.0546875,363.28125,-142.578125,91.796875,NaN
1731719174455.4375,-340.33203125,-717.28515625,-1000,-84.47265625,NaN
1731719174459.3438,-295.41015625,-157.2265625,-591.30859375,-268.06640625,NaN
1731719174463.25,128.41796875,871.09375,295.41015625,-159.66796875,NaN
1731719174467.1562,238.28125,642.08984375,176.26953125,72.75390625,NaN
1731719174471.0625,-193.359375,-755.37109375,-921.38671875,20.5078125,NaN
1731719174474.9688,-449.70703125,-604.4921875,-918.9453125,-267.578125,NaN
1731719174478.875,-46.38671875,793.9453125,242.67578125,-231.93359375,NaN
1731719174482.7812,301.7578125,549.31640625,140.13671875,72.265625,NaN
1731719174486.6875,-97.65625,-897.4609375,-1000,64.94140625,NaN
1731719174490.5938,-523.92578125,-796.875,-962.40234375,-250,NaN
1731719174494.5,-162.59765625,457.03125,-74.70703125,-278.80859375,NaN
1731719174498.4062,285.64453125,518.5546875,31.73828125,-12.20703125,NaN
1731719174502.3125,-12.6953125,-310.05859375,-642.08984375,22.4609375,NaN
1731719174506.2188,-463.37890625,-465.33203125,-792.96875,-215.8203125,NaN
1731719174510.125,-262.6953125,75.68359375,-354.98046875,-263.671875,NaN
1731719174514.0312,183.10546875,761.71875,223.6328125,-89.84375,NaN
1731719174517.9375,87.890625,269.04296875,-135.25390625,37.59765625,NaN
1731719174521.8438,-347.65625,-619.62890625,-882.32421875,-97.16796875,NaN
1731719174525.75,-343.75,-125,-480.46875,-238.28125,NaN
1731719174529.6562,164.0625,194.3359375,-144.53125,-75.68359375,NaN
1731719174533.5625,199.21875,-119.62890625,-410.64453125,40.0390625,NaN
1731719174537.4688,-270.5078125,-393.06640625,-673.33984375,-80.56640625,NaN
1731719174541.375,-387.6953125,-509.765625,-757.8125,-218.75,NaN
1731719174545.2812,-10.25390625,349.609375,30.76171875,-167.48046875,NaN
1731719174549.1875,258.30078125,938.4765625,512.20703125,-13.18359375,NaN
1731719174553.0938,-43.9453125,120.1171875,-249.0234375,11.71875,NaN
1731719174557,-397.94921875,-731.93359375,-917.96875,-152.34375,NaN
1731719174560.9062,-146.484375,130.859375,-163.0859375,-219.23828125,NaN
1731719174564.8125,246.58203125,999.51171875,521.97265625,-36.1328125,NaN
1731719174568.7188,42.96875,338.8671875,-68.359375,73.2421875,NaN
1731719174572.625,-350.5859375,-842.28515625,-958.0078125,-58.10546875,NaN
1731719174576.5312,-229.00390625,-645.01953125,-728.515625,-196.2890625,NaN
1731719174580.4375,227.05078125,390.13671875,101.07421875,-62.5,NaN
1731719174584.3438,158.203125,249.51171875,-28.3203125,80.078125,NaN
1731719174588.25,-252.9296875,-691.89453125,-768.06640625,-10.7421875,NaN
1731719174592.1562,-296.875,-855.95703125,-916.015625,-198.2421875,NaN
1731719174596.0625,31.73828125,523.4375,294.921875,-221.6796875,NaN
1731719174599.9688,249.0234375,872.0703125,611.328125,52.734375,NaN
1731719174603.875,-123.046875,-487.79296875,-651.85546875,16.6015625,NaN
1731719174607.7812,-405.2734375,-690.4296875,-811.03515625,-241.69921875,NaN
1731719174611.6875,-32.2265625,554.6875,269.04296875,-216.30859375,NaN
1731719174615.5938,284.66796875,912.59765625,588.8671875,15.13671875,NaN
1731719174619.5,-10.25390625,-313.4765625,-468.75,84.47265625,NaN
1731719174623.4062,-373.53515625,-1000,-1000,-122.0703125,NaN
1731719174627.3125,-184.08203125,-271.484375,-410.64453125,-233.88671875,NaN
1731719174631.2188,242.1875,645.5078125,343.26171875,-16.6015625,NaN
1731719174635.125,147.94921875,-400.390625,-487.3046875,159.1796875,NaN
1731719174639.0312,-374.0234375,-1000,-1000,-136.23046875,NaN
1731719174642.9375,-347.65625,100.5859375,-107.91015625,-343.26171875,NaN
1731719174646.8438,207.03125,999.51171875,850.09765625,-73.73046875,NaN
1731719174650.75,235.3515625,460.44921875,263.671875,117.1875,NaN
1731719174654.6562,-264.16015625,-439.94140625,-635.25390625,-22.94921875,NaN
1731719174658.5625,-371.09375,-311.03515625,-513.671875,-228.02734375,NaN
1731719174662.4688,62.01171875,708.49609375,378.41796875,-174.8046875,NaN
1731719174666.375,260.7421875,971.19140625,674.31640625,76.171875,NaN
1731719174670.2812,-75.1953125,-170.8984375,-279.296875,108.88671875,NaN
1731719174674.1875,-395.99609375,-827.1484375,-854.4921875,-152.83203125,NaN
1731719174678.0938,-31.73828125,-111.328125,-187.98828125,-146.97265625,NaN
1731719174682,328.61328125,432.6171875,313.4765625,70.3125,NaN
1731719174685.9062,-22.94921875,267.578125,102.5390625,53.7109375,NaN
1731719174689.8125,-346.6796875,-692.87109375,-731.4453125,-81.54296875,NaN
1731719174693.7188,-158.69140625,-601.5625,-633.30078125,-155.76171875,NaN
1731719174697.625,222.65625,628.90625,399.4140625,-30.2734375,NaN
1731719174701.5312,128.41796875,667.96875,382.32421875,95.21484375,NaN
1731719174705.4375,-266.6015625,-554.6875,-639.16015625,-4.39453125,NaN
1731719174709.3438,-269.53125,-528.3203125,-584.9609375,-203.125,NaN
1731719174713.25,141.11328125,729.00390625,569.82421875,-110.83984375,NaN
1731719174717.1562,234.375,581.0546875,477.05078125,112.79296875,NaN
1731719174721.0625,-201.66015625,-757.32421875,-744.62890625,34.66796875,NaN
1731719174724.9688,-389.6484375,-806.640625,-868.65234375,-187.5,NaN
1731719174728.875,-28.80859375,538.0859375,426.7578125,-210.44921875,NaN
1731719174732.7812,259.765625,999.51171875,930.6640625,46.38671875,NaN
1731719174736.6875,-18.5546875,-198.73046875,-317.3828125,145.01953125,NaN
1731719174740.5938,-359.375,-891.6015625,-929.19921875,-103.515625,NaN
1731719174744.5,-125.9765625,372.0703125,247.0703125,-223.14453125,NaN
1731719174748.4062,289.0625,999.51171875,877.44140625,37.109375,NaN
1731719174752.3125,113.28125,-107.421875,-165.52734375,170.41015625,NaN
1731719174756.2188,-328.61328125,-1000,-1000,-50.29296875,NaN
1731719174760.125,-268.06640625,107.91015625,4.8828125,-225.09765625,NaN
1731719174764.0312,211.9140625,999.51171875,987.3046875,-2.9296875,NaN
1731719174767.9375,209.47265625,57.12890625,7.32421875,232.421875,NaN
1731719174771.8438,-269.53125,-1000,-1000,41.015625,NaN
1731719174775.75,-400.390625,-187.98828125,-296.38671875,-281.73828125,NaN
1731719174779.6562,94.7265625,999.51171875,893.06640625,-129.39453125,NaN
1731719174783.5625,275.87890625,597.16796875,561.5234375,130.859375,NaN
1731719174787.4688,-142.578125,-458.0078125,-501.953125,61.5234375,NaN
1731719174791.375,-375.9765625,-390.13671875,-460.44921875,-159.66796875,NaN
1731719174795.2812,0.48828125,640.625,425.29296875,-126.46484375,NaN
1731719174799.1875,264.6484375,786.62109375,554.19921875,74.21875,NaN
1731719174803.0938,-62.5,-288.0859375,-354.98046875,67.87109375,NaN
1731719174807,-383.30078125,-831.0546875,-797.36328125,-155.2734375,NaN
1731719174810.9062,-140.13671875,107.421875,-0.9765625,-204.1015625,NaN
1731719174814.8125,311.5234375,105.46875,47.8515625,72.75390625,NaN
1731719174818.7188,69.3359375,-854.98046875,-748.046875,108.88671875,NaN
1731719174822.625,-423.828125,-791.50390625,-777.34375,-151.3671875,NaN
1731719174826.5312,-242.1875,-60.05859375,-149.4140625,-227.5390625,NaN
1731719174830.4375,243.1640625,792.96875,621.09375,-38.57421875,NaN
1731719174834.3438,178.7109375,645.01953125,448.73046875,107.421875,NaN
1731719174838.25,-266.11328125,-384.27734375,-408.203125,-14.16015625,NaN
1731719174842.1562,-296.38671875,-530.2734375,-498.046875,-154.78515625,NaN
1731719174846.0625,93.26171875,548.33984375,499.0234375,-81.0546875,NaN
1731719174849.9688,219.23828125,868.1640625,749.51171875,98.14453125,NaN
1731719174853.875,-130.859375,-245.60546875,-343.26171875,57.12890625,NaN
1731719174857.7812,-310.546875,-1000,-1000,-95.21484375,NaN
1731719174861.6875,8.30078125,-588.8671875,-625,-99.12109375,NaN
1731719174865.5938,272.4609375,221.6796875,51.7578125,39.0625,NaN
1731719174869.5,-36.62109375,-387.20703125,-512.20703125,70.80078125,NaN
1731719174873.4062,-345.21484375,-1000,-1000,-76.66015625,NaN
1731719174877.3125,-126.46484375,-387.6953125,-478.02734375,-178.7109375,NaN
1731719174881.2188,195.80078125,932.12890625,641.11328125,-55.6640625,NaN
1731719174885.125,83.984375,213.37890625,26.3671875,125,NaN
1731719174889.0312,-325.68359375,-1000,-1000,-19.04296875,NaN
1731719174892.9375,-304.19921875,-445.3125,-524.90234375,-211.9140625,NaN
1731719174896.8438,149.4140625,891.11328125,650.87890625,-108.3984375,NaN
1731719174900.75,219.23828125,473.6328125,306.15234375,132.8125,NaN
1731719174904.6562,-187.5,-945.3125,-938.4765625,78.125,NaN
1731719174908.5625,-334.47265625,-820.80078125,-828.61328125,-175.78125,NaN
1731719174912.4688,30.76171875,593.75,406.73828125,-160.15625,NaN
1731719174916.375,269.04296875,738.76953125,583.49609375,89.35546875,NaN
1731719174920.2812,-25.390625,-718.75,-683.10546875,144.53125,NaN
1731719174924.1875,-380.859375,-909.66796875,-906.25,-159.66796875,NaN
1731719174928.0938,-72.265625,458.49609375,326.66015625,-210.9375,NaN
1731719174932,346.6796875,806.15234375,688.4765625,87.40234375,NaN
1731719174935.9062,55.6640625,-298.33984375,-257.32421875,126.953125,NaN
1731719174939.8125,-361.81640625,-750,-666.015625,-118.1640625,NaN
1731719174943.7188,-185.546875,163.0859375,97.65625,-199.70703125,NaN
1731719174947.625,267.08984375,868.1640625,717.7734375,19.53125,NaN
1731719174951.5312,183.59375,-99.609375,-45.41015625,154.296875,NaN
1731719174955.4375,-311.03515625,-876.46484375,-667.96875,-54.6875,NaN
1731719174959.3438,-321.2890625,187.98828125,236.328125,-250,NaN
1731719174963.25,250.9765625,816.89453125,833.49609375,-23.92578125,NaN
1731719174967.1562,288.0859375,129.8828125,253.90625,179.6875,NaN
1731719174971.0625,-255.37109375,-189.453125,-76.171875,-5.859375,NaN
1731719174974.9688,-359.375,-5.859375,122.0703125,-178.22265625,NaN
1731719174978.875,51.26953125,652.34375,709.47265625,-131.8359375,NaN
1731719174982.7812,275.390625,947.265625,914.55078125,48.33984375,NaN
1731719174986.6875,-103.02734375,230.95703125,253.41796875,40.52734375,NaN
1731719174990.5938,-403.80859375,-355.95703125,-244.62890625,-152.83203125,NaN
1731719174994.5,-109.86328125,353.515625,377.44140625,-177.24609375,NaN
1731719174998.4062,253.41796875,950.68359375,919.43359375,30.76171875,NaN
1731719175002.3125,16.11328125,265.13671875,312.5,88.37890625,NaN
1731719175006.2188,-367.67578125,-416.015625,-257.8125,-98.14453125,NaN
1731719175010.125,-192.87109375,-402.34375,-191.40625,-164.0625,NaN
1731719175014.0312,175.29296875,593.75,635.25390625,-72.265625,NaN
1731719175017.9375,118.1640625,825.1953125,770.5078125,81.0546875,NaN
1731719175021.8438,-237.79296875,-508.30078125,-366.69921875,24.4140625,NaN
1731719175025.75,-254.8828125,-406.25,-280.76171875,-153.3203125,NaN
1731719175029.6562,107.91015625,972.65625,915.52734375,-111.81640625,NaN
1731719175033.5625,248.046875,695.80078125,747.0703125,97.65625,NaN
1731719175037.4688,-99.12109375,-723.14453125,-614.2578125,97.65625,NaN
1731719175041.375,-337.40234375,-714.35546875,-695.80078125,-149.4140625,NaN
1731719175045.2812,-18.06640625,675.78125,663.0859375,-186.03515625,NaN
1731719175049.1875,298.33984375,879.8828125,916.50390625,76.66015625,NaN
1731719175053.0938,51.26953125,-454.58984375,-372.55859375,174.8046875,NaN
1731719175057,-331.54296875,-856.4453125,-832.03125,-98.6328125,NaN
1731719175060.9062,-190.91796875,417.48046875,421.875,-267.578125,NaN
1731719175064.8125,238.28125,999.51171875,999.51171875,-18.5546875,NaN
1731719175068.7188,84.9609375,105.46875,172.8515625,104.98046875,NaN
1731719175072.625,-349.12109375,-962.890625,-793.9453125,-98.14453125,NaN
1731719175076.5312,-271.97265625,-82.51953125,-66.40625,-241.2109375,NaN
1731719175080.4375,206.54296875,946.77734375,879.39453125,-57.6171875,NaN
1731719175084.3438,197.265625,343.75,397.4609375,107.91015625,NaN
1731719175088.25,-251.953125,-743.65234375,-596.19140625,-7.8125,NaN
1731719175092.1562,-260.7421875,-853.515625,-711.9140625,-157.2265625,NaN
1731719175096.0625,127.9296875,116.2109375,174.31640625,-117.1875,NaN
1731719175099.9688,312.98828125,-183.59375,-156.73828125,142.578125,NaN
1731719175103.875,-120.60546875,-1000,-1000,46.875,NaN
1731719175107.7812,-421.38671875,-778.80859375,-733.88671875,-256.8359375,NaN
1731719175111.6875,-5.37109375,198.2421875,184.08203125,-162.109375,NaN
1731719175115.5938,270.5078125,683.59375,611.328125,49.8046875,NaN
1731719175119.5,-49.8046875,-85.9375,-50.29296875,69.3359375,NaN
1731719175123.4062,-359.375,-806.15234375,-696.2890625,-118.1640625,NaN
1731719175127.3125,-121.09375,-115.72265625,-72.265625,-184.5703125,NaN
1731719175131.2188,291.50390625,857.421875,792.48046875,2.9296875,NaN
1731719175135.125,131.8359375,373.046875,353.02734375,108.88671875,NaN
1731719175139.0312,-330.078125,-824.70703125,-610.3515625,-62.98828125,NaN
1731719175142.9375,-227.5390625,-835.9375,-540.0390625,-179.19921875,NaN
1731719175146.8438,230.46875,-171.875,33.203125,-38.0859375,NaN
1731719175150.75,167.48046875,20.01953125,103.02734375,40.52734375,NaN
1731719175154.6562,-247.55859375,-539.55078125,-421.875,-33.69140625,NaN
1731719175158.5625,-324.70703125,-693.84765625,-494.62890625,-176.26953125,NaN
1731719175162.4688,43.45703125,376.46484375,458.0078125,-166.9921875,NaN
1731719175166.375,220.703125,951.66015625,898.92578125,45.41015625,NaN
1731719175170.2812,-86.9140625,-296.38671875,-249.51171875,91.796875,NaN
1731719175174.1875,-337.890625,-964.84375,-902.83203125,-143.06640625,NaN
1731719175178.0938,-87.40234375,278.80859375,244.62890625,-238.76953125,NaN
1731719175182,244.140625,999.51171875,999.51171875,-3.90625,NaN
1731719175185.9062,46.875,-59.5703125,28.80859375,119.140625,NaN
1731719175189.8125,-321.2890625,-1000,-1000,-89.35546875,NaN
1731719175193.7188,-212.890625,-245.1171875,-318.359375,-250.9765625,NaN
1731719175197.625,194.82421875,999.51171875,912.109375,-76.171875,NaN
1731719175201.5312,174.8046875,402.34375,314.94140625,142.578125,NaN
1731719175205.4375,-236.81640625,-996.58203125,-916.015625,-3.41796875,NaN
1731719175209.3438,-314.94140625,-315.91796875,-360.3515625,-255.37109375,NaN
1731719175213.25,124.0234375,999.51171875,995.1171875,-134.765625,NaN
1731719175217.1562,291.9921875,514.6484375,499.0234375,140.625,NaN
1731719175221.0625,-162.59765625,-941.40625,-845.703125,46.38671875,NaN
1731719175224.9688,-410.15625,-469.7265625,-476.07421875,-251.46484375,NaN
1731719175228.875,22.4609375,966.30859375,863.76953125,-196.77734375,NaN
1731719175232.7812,341.796875,547.8515625,580.078125,134.27734375,NaN
1731719175236.6875,-53.22265625,-924.8046875,-847.65625,99.12109375,NaN
1731719175240.5938,-463.8671875,-721.6796875,-706.54296875,-258.30078125,NaN
1731719175244.5,-151.85546875,556.15234375,490.72265625,-261.23046875,NaN
1731719175248.4062,238.76953125,852.5390625,786.62109375,13.18359375,NaN
1731719175252.3125,16.11328125,1.953125,-49.31640625,93.75,NaN
1731719175256.2188,-380.859375,-642.08984375,-630.859375,-131.34765625,NaN
1731719175260.125,-234.375,125.9765625,60.546875,-267.578125,NaN
1731719175264.0312,213.37890625,823.2421875,693.359375,-69.82421875,NaN
1731719175267.9375,131.34765625,145.99609375,79.58984375,85.9375,NaN
1731719175271.8438,-346.6796875,-718.75,-682.6171875,-86.42578125,NaN
1731719175275.75,-378.41796875,-367.1875,-324.70703125,-262.20703125,NaN
1731719175279.6562,111.81640625,171.38671875,197.265625,-104.4921875,NaN
1731719175283.5625,187.01171875,72.75390625,105.46875,51.26953125,NaN
1731719175287.4688,-221.19140625,-361.328125,-340.33203125,-12.20703125,NaN
1731719175291.375,-368.65234375,-669.921875,-618.65234375,-177.24609375,NaN
1731719175295.2812,-21.484375,167.96875,171.38671875,-192.3828125,NaN
1731719175299.1875,202.63671875,941.40625,832.51953125,-3.90625,NaN
1731719175303.0938,-83.0078125,83.0078125,43.45703125,38.0859375,NaN
1731719175307,-332.51953125,-1000,-883.7890625,-117.67578125,NaN
1731719175310.9062,-79.1015625,-158.69140625,-123.046875,-177.734375,NaN
1731719175314.8125,260.25390625,999.51171875,944.3359375,-28.80859375,NaN
1731719175318.7188,80.078125,224.12109375,246.09375,88.37890625,NaN
1731719175322.625,-291.015625,-1000,-968.26171875,-33.69140625,NaN
1731719175326.5312,-200.68359375,-617.67578125,-607.421875,-172.8515625,NaN
1731719175330.4375,177.734375,681.15234375,583.49609375,-88.8671875,NaN
1731719175334.3438,145.5078125,701.66015625,604.4921875,80.56640625,NaN
1731719175338.25,-198.73046875,-678.7109375,-628.41796875,56.15234375,NaN
1731719175342.1562,-275.390625,-588.37890625,-617.67578125,-168.9453125,NaN
1731719175346.0625,59.08203125,817.3828125,749.0234375,-190.91796875,NaN
1731719175349.9688,248.53515625,999.51171875,999.51171875,96.19140625,NaN
1731719175353.875,-94.7265625,-173.828125,-87.890625,97.65625,NaN
1731719175357.7812,-364.2578125,-551.26953125,-455.56640625,-165.0390625,NaN
1731719175361.6875,-57.6171875,615.72265625,594.23828125,-187.01171875,NaN
1731719175365.5938,285.15625,999.51171875,999.51171875,66.40625,NaN
1731719175369.5,-5.37109375,33.69140625,82.51953125,129.39453125,NaN
1731719175373.4062,-329.1015625,-830.078125,-616.2109375,-84.47265625,NaN
1731719175377.3125,-94.7265625,176.7578125,268.5546875,-175.29296875,NaN
1731719175381.2188,268.06640625,999.51171875,999.51171875,-9.765625,NaN
1731719175385.125,176.7578125,-41.50390625,-25.87890625,183.59375,NaN
1731719175389.0312,-306.640625,-1000,-1000,-57.12890625,NaN
1731719175392.9375,-336.42578125,152.83203125,197.265625,-321.77734375,NaN
1731719175396.8438,173.33984375,999.51171875,999.51171875,-68.84765625,NaN
1731719175400.75,216.796875,633.7890625,640.13671875,152.34375,NaN
1731719175404.6562,-246.09375,-197.75390625,-104.98046875,11.23046875,NaN
1731719175408.5625,-346.6796875,-31.25,49.8046875,-186.5234375,NaN
1731719175412.4688,92.7734375,939.94140625,927.24609375,-127.44140625,NaN
1731719175416.375,281.25,895.01953125,862.3046875,93.26171875,NaN
1731719175420.2812,-102.5390625,-333.984375,-210.44921875,81.54296875,NaN
1731719175424.1875,-383.30078125,-699.21875,-486.81640625,-158.203125,NaN
1731719175428.0938,-52.24609375,296.38671875,329.58984375,-168.45703125,NaN
1731719175432,287.109375,742.67578125,697.265625,60.546875,NaN
1731719175435.9062,13.18359375,-153.80859375,-80.078125,98.6328125,NaN
1731719175439.8125,-365.234375,-763.671875,-642.08984375,-145.99609375,NaN
1731719175443.7188,-127.44140625,-394.04296875,-272.4609375,-172.36328125,NaN
1731719175447.625,251.46484375,-7.32421875,116.2109375,-3.41796875,NaN
1731719175451.5312,59.5703125,278.80859375,277.34375,21.484375,NaN
1731719175455.4375,-314.453125,-402.34375,-310.546875,-70.80078125,NaN
1731719175459.3438,-313.4765625,-226.07421875,-125,-223.6328125,NaN
1731719175463.25,125.9765625,935.546875,874.51171875,-95.703125,NaN
1731719175467.1562,252.9296875,539.0625,584.47265625,170.41015625,NaN
1731719175471.0625,-195.3125,-781.25,-667.48046875,66.40625,NaN
1731719175474.9688,-348.14453125,-1000,-1000,-146.484375,NaN
1731719175478.875,40.0390625,33.203125,-81.0546875,-156.73828125,NaN
1731719175482.7812,211.42578125,999.51171875,892.578125,-14.16015625,NaN
1731719175486.6875,-84.9609375,18.5546875,0.9765625,76.66015625,NaN
1731719175490.5938,-362.79296875,-887.6953125,-741.2109375,-112.3046875,NaN
1731719175494.5,-145.5078125,249.0234375,299.31640625,-220.703125,NaN
1731719175498.4062,226.5625,999.51171875,999.51171875,-18.06640625,NaN
1731719175502.3125,68.359375,192.3828125,120.60546875,129.39453125,NaN
1731719175506.2188,-308.10546875,-1000,-1000,-52.734375,NaN
1731719175510.125,-237.79296875,-131.34765625,-182.12890625,-260.25390625,NaN
1731719175514.0312,203.125,999.51171875,910.15625,-72.265625,NaN
1731719175517.9375,215.8203125,-25.390625,-49.31640625,151.3671875,NaN
1731719175521.8438,-239.2578125,-1000,-1000,-43.45703125,NaN
1731719175525.75,-329.1015625,-260.25390625,-312.98828125,-296.38671875,NaN
1731719175529.6562,165.52734375,943.359375,842.28515625,-115.72265625,NaN
1731719175533.5625,279.78515625,599.12109375,571.77734375,112.3046875,NaN
1731719175537.4688,-170.41015625,-584.47265625,-574.21875,14.16015625,NaN
1731719175541.375,-354.98046875,-487.79296875,-484.375,-198.73046875,NaN
1731719175545.2812,49.8046875,702.1484375,553.22265625,-119.140625,NaN
1731719175549.1875,328.61328125,684.08203125,545.41015625,101.07421875,NaN
1731719175553.0938,-27.34375,-393.06640625,-386.23046875,78.125,NaN
1731719175557,-348.6328125,-646.484375,-572.75390625,-140.13671875,NaN
1731719175560.9062,-27.34375,325.68359375,312.5,-147.4609375,NaN
1731719175564.8125,406.73828125,134.765625,182.12890625,129.8828125,NaN
1731719175568.7188,132.8125,-750.48828125,-581.54296875,126.953125,NaN
1731719175572.625,-345.703125,-622.0703125,-541.015625,-128.41796875,NaN
1731719175576.5312,-207.03125,-55.17578125,-72.75390625,-181.640625,NaN
1731719175580.4375,209.9609375,867.67578125,777.83203125,-29.78515625,NaN
1731719175584.3438,166.50390625,572.75390625,510.25390625,112.3046875,NaN
1731719175588.25,-260.7421875,-498.046875,-452.63671875,-12.6953125,NaN
1731719175592.1562,-311.03515625,-515.625,-464.35546875,-193.359375,NaN
1731719175596.0625,88.37890625,520.01953125,499.51171875,-145.01953125,NaN
1731719175599.9688,230.46875,895.5078125,791.9921875,48.33984375,NaN
1731719175603.875,-110.3515625,-173.33984375,-194.82421875,43.45703125,NaN
1731719175607.7812,-285.64453125,-1000,-985.83984375,-114.74609375,NaN
1731719175611.6875,11.71875,-520.5078125,-443.359375,-152.83203125,NaN
1731719175615.5938,203.125,704.1015625,616.2109375,-44.921875,NaN
1731719175619.5,-71.2890625,248.046875,183.10546875,26.85546875,NaN
1731719175623.4062,-333.0078125,-1000,-935.546875,-91.796875,NaN
1731719175627.3125,-117.67578125,-290.0390625,-321.77734375,-198.2421875,NaN
1731719175631.2188,235.83984375,999.51171875,999.51171875,-75.1953125,NaN
1731719175635.125,95.703125,498.53515625,467.7734375,80.078125,NaN
1731719175639.0312,-359.375,-714.35546875,-636.23046875,-99.609375,NaN
1731719175642.9375,-320.3125,-138.671875,-136.23046875,-270.5078125,NaN
1731719175646.8438,119.140625,999.51171875,993.65234375,-134.765625,NaN
1731719175650.75,169.921875,690.91796875,708.0078125,78.125,NaN
1731719175654.6562,-210.44921875,-730.95703125,-622.0703125,19.53125,NaN
1731719175658.5625,-355.95703125,-598.6328125,-484.375,-236.81640625,NaN
1731719175662.4688,43.9453125,743.65234375,664.55078125,-176.7578125,NaN
1731719175666.375,243.65234375,567.3828125,518.5546875,66.40625,NaN
1731719175670.2812,-83.0078125,-680.17578125,-611.328125,79.1015625,NaN
1731719175674.1875,-395.01953125,-892.578125,-878.41796875,-195.80078125,NaN
1731719175678.0938,-104.00390625,446.2890625,374.51171875,-262.20703125,NaN
1731719175682,283.203125,872.0703125,830.56640625,23.92578125,NaN
1731719175685.9062,-10.7421875,-157.2265625,-63.96484375,69.3359375,NaN
1731719175689.8125,-424.8046875,-543.9453125,-450.68359375,-185.546875,NaN
1731719175693.7188,-211.42578125,413.0859375,373.53515625,-260.7421875,NaN
1731719175697.625,211.9140625,899.90234375,831.0546875,-61.5234375,NaN
1731719175701.5312,76.66015625,-83.49609375,-10.25390625,79.1015625,NaN
1731719175705.4375,-363.76953125,-920.8984375,-730.95703125,-118.1640625,NaN
1731719175709.3438,-316.89453125,-85.44921875,-37.59765625,-292.96875,NaN
1731719175713.25,216.30859375,570.3125,536.62109375,-43.9453125,NaN
1731719175717.1562,227.5390625,-244.62890625,-108.3984375,137.20703125,NaN
1731719175721.0625,-276.85546875,-916.50390625,-774.90234375,-41.50390625,NaN
1731719175724.9688,-395.01953125,-564.94140625,-495.1171875,-234.375,NaN
1731719175728.875,53.7109375,371.58203125,355.95703125,-136.71875,NaN
1731719175732.7812,263.18359375,709.47265625,621.09375,50.78125,NaN
1731719175736.6875,-87.40234375,7.32421875,-8.30078125,24.4140625,NaN
1731719175740.5938,-356.93359375,-647.94921875,-584.9609375,-155.2734375,NaN
1731719175744.5,-81.54296875,180.17578125,144.04296875,-194.82421875,NaN
1731719175748.4062,267.578125,765.13671875,675.29296875,36.1328125,NaN
1731719175752.3125,38.0859375,-127.9296875,-119.62890625,108.88671875,NaN
1731719175756.2188,-321.2890625,-838.8671875,-729.98046875,-93.75,NaN
1731719175760.125,-161.62109375,-677.734375,-507.8125,-187.01171875,NaN
1731719175764.0312,172.8515625,432.6171875,400.87890625,-96.19140625,NaN
1731719175767.9375,108.88671875,729.98046875,555.17578125,42.96875,NaN
1731719175771.8438,-273.92578125,-646.97265625,-625,-28.80859375,NaN
1731719175775.75,-311.03515625,-610.3515625,-525.87890625,-195.3125,NaN
1731719175779.6562,93.75,692.3828125,609.86328125,-121.58203125,NaN
1731719175783.5625,198.73046875,901.85546875,756.8359375,51.7578125,NaN
1731719175787.4688,-152.83203125,-388.671875,-405.76171875,43.9453125,NaN
1731719175791.375,-336.42578125,-770.99609375,-751.953125,-158.203125,NaN
1731719175795.2812,-15.13671875,494.140625,423.828125,-204.1015625,NaN
1731719175799.1875,230.46875,888.18359375,748.046875,7.32421875,NaN
1731719175803.0938,-2.9296875,-314.453125,-363.76953125,114.74609375,NaN
1731719175807,-345.21484375,-958.49609375,-952.63671875,-135.7421875,NaN
1731719175810.9062,-181.15234375,160.15625,29.296875,-298.828125,NaN
1731719175814.8125,224.609375,999.51171875,821.2890625,-26.3671875,NaN
1731719175818.7188,50.29296875,115.72265625,-8.30078125,86.9140625,NaN
1731719175822.625,-382.8125,-882.32421875,-837.40234375,-132.32421875,NaN
1731719175826.5312,-311.03515625,152.83203125,57.6171875,-280.2734375,NaN
1731719175830.4375,170.41015625,999.51171875,978.515625,-80.078125,NaN
1731719175834.3438,168.45703125,372.0703125,388.671875,107.421875,NaN
1731719175838.25,-275.390625,-687.01171875,-607.421875,-40.52734375,NaN
1731719175842.1562,-339.35546875,-495.60546875,-416.50390625,-234.86328125,NaN
1731719175846.0625,60.05859375,614.2578125,549.8046875,-154.296875,NaN
1731719175849.9688,273.4375,66.40625,45.8984375,143.5546875,NaN
1731719175853.875,-158.69140625,-1000,-1000,52.734375,NaN
1731719175857.7812,-467.7734375,-559.08203125,-542.48046875,-265.13671875,NaN
1731719175861.6875,-42.96875,603.515625,533.69140625,-169.43359375,NaN
1731719175865.5938,282.71484375,912.109375,785.64453125,51.26953125,NaN
1731719175869.5,-56.15234375,114.74609375,76.66015625,15.625,NaN
1731719175873.4062,-387.20703125,-435.546875,-381.8359375,-177.734375,NaN
1731719175877.3125,-121.58203125,213.37890625,169.43359375,-190.91796875,NaN
1731719175881.2188,233.3984375,975.09765625,864.2578125,5.37109375,NaN
1731719175885.125,59.08203125,401.85546875,340.8203125,93.75,NaN
1731719175889.0312,-332.51953125,-769.53125,-698.73046875,-72.265625,NaN
1731719175892.9375,-223.6328125,-945.80078125,-767.578125,-164.55078125,NaN
1731719175896.8438,175.29296875,-99.609375,-11.23046875,-71.77734375,NaN
1731719175900.75,114.74609375,464.35546875,394.04296875,6.8359375,NaN
1731719175904.6562,-269.04296875,-351.07421875,-329.1015625,-43.9453125,NaN
1731719175908.5625,-280.2734375,-1000,-827.1484375,-135.7421875,NaN
1731719175912.4688,105.95703125,-289.55078125,-179.19921875,-106.93359375,NaN
1731719175916.375,196.77734375,762.6953125,634.765625,12.6953125,NaN
1731719175920.2812,-112.3046875,-188.96484375,-165.52734375,64.94140625,NaN
1731719175924.1875,-375,-815.4296875,-649.90234375,-162.59765625,NaN
1731719175928.0938,-88.8671875,304.6875,331.54296875,-216.796875,NaN
1731719175932,243.1640625,999.51171875,999.51171875,11.71875,NaN
1731719175935.9062,42.48046875,76.171875,152.34375,139.16015625,NaN
1731719175939.8125,-305.6640625,-1000,-1000,-42.48046875,NaN
1731719175943.7188,-214.84375,-260.25390625,-324.70703125,-250.9765625,NaN
1731719175947.625,195.3125,999.51171875,953.125,-82.03125,NaN
1731719175951.5312,168.45703125,131.34765625,217.28515625,119.62890625,NaN
1731719175955.4375,-258.30078125,-998.046875,-871.09375,-53.22265625,NaN
1731719175959.3438,-328.61328125,-99.609375,-100.09765625,-289.55078125,NaN
1731719175963.25,107.91015625,999.51171875,999.51171875,-128.90625,NaN
1731719175967.1562,217.7734375,461.42578125,477.5390625,124.0234375,NaN
1731719175971.0625,-206.54296875,-788.57421875,-660.15625,31.73828125,NaN
1731719175974.9688,-377.9296875,-535.64453125,-475.5859375,-204.1015625,NaN
1731719175978.875,15.625,602.5390625,453.125,-170.41015625,NaN
1731719175982.7812,300.29296875,199.70703125,139.6484375,108.3984375,NaN
1731719175986.6875,-43.45703125,-1000,-986.328125,106.93359375,NaN
1731719175990.5938,-418.45703125,-946.2890625,-931.640625,-200.68359375,NaN
1731719175994.5,-119.140625,160.64453125,96.19140625,-209.9609375,NaN
1731719175998.4062,273.4375,543.45703125,431.640625,59.08203125,NaN
1731719176002.3125,31.73828125,-325.68359375,-284.66796875,79.1015625,NaN
1731719176006.2188,-363.76953125,-958.49609375,-774.90234375,-137.6953125,NaN
1731719176010.125,-209.47265625,-307.12890625,-238.76953125,-206.0546875,NaN
1731719176014.0312,235.83984375,448.2421875,380.859375,-28.80859375,NaN
1731719176017.9375,174.8046875,-262.20703125,-257.32421875,101.5625,NaN
1731719176021.8438,-287.109375,-999.0234375,-974.12109375,-55.17578125,NaN
1731719176025.75,-305.6640625,-653.80859375,-661.1328125,-207.03125,NaN
1731719176029.6562,176.7578125,-10.25390625,-41.50390625,-65.4296875,NaN
1731719176033.5625,246.09375,-161.62109375,-155.2734375,93.75,NaN
1731719176037.4688,-222.16796875,-733.3984375,-654.78515625,-8.30078125,NaN
1731719176041.375,-385.7421875,-780.76171875,-663.57421875,-188.4765625,NaN
1731719176045.2812,-13.671875,-39.55078125,37.59765625,-180.17578125,NaN
1731719176049.1875,211.42578125,548.33984375,485.3515625,-3.90625,NaN
1731719176053.0938,-85.9375,-124.51171875,-141.6015625,50.78125,NaN
1731719176057,-352.5390625,-953.61328125,-800.29296875,-134.765625,NaN
1731719176060.9062,-82.03125,-47.36328125,18.5546875,-187.01171875,NaN
1731719176064.8125,269.04296875,847.16796875,760.7421875,7.32421875,NaN
1731719176068.7188,27.83203125,230.46875,247.55859375,67.3828125,NaN
1731719176072.625,-332.03125,-800.78125,-699.70703125,-64.453125,NaN
1731719176076.5312,-218.75,-655.2734375,-615.72265625,-175.78125,NaN
1731719176080.4375,143.06640625,707.03125,646.97265625,-93.26171875,NaN
1731719176084.3438,138.671875,736.328125,678.7109375,77.1484375,NaN
1731719176088.25,-207.03125,-715.33203125,-651.85546875,53.7109375,NaN
1731719176092.1562,-292.96875,-598.14453125,-596.19140625,-175.78125,NaN
1731719176096.0625,76.171875,841.30859375,801.7578125,-178.22265625,NaN
1731719176099.9688,237.79296875,979.98046875,987.79296875,100.5859375,NaN
1731719176103.875,-108.88671875,-349.609375,-301.7578125,128.90625,NaN
1731719176107.7812,-344.23828125,-819.82421875,-786.1328125,-118.65234375,NaN
1731719176111.6875,-44.43359375,526.85546875,521.484375,-192.3828125,NaN
1731719176115.5938,268.06640625,999.51171875,999.51171875,53.7109375,NaN
1731719176119.5,6.8359375,-189.94140625,-27.83203125,133.7890625,NaN
1731719176123.4062,-320.3125,-1000,-835.44921875,-88.37890625,NaN
1731719176127.3125,-150.87890625,-160.15625,25.87890625,-208.49609375,NaN
1731719176131.2188,229.00390625,912.59765625,962.890625,-17.08984375,NaN
1731719176135.125,176.7578125,-116.69921875,-73.2421875,206.54296875,NaN
1731719176139.0312,-281.73828125,-1000,-1000,-25.390625,NaN
1731719176142.9375,-289.55078125,-130.859375,-66.89453125,-292.96875,NaN
1731719176146.8438,165.0390625,890.13671875,871.58203125,-102.05078125,NaN
1731719176150.75,172.8515625,456.0546875,529.78515625,90.8203125,NaN
1731719176154.6562,-240.72265625,-604.98046875,-408.69140625,-17.578125,NaN
1731719176158.5625,-347.16796875,-516.11328125,-332.51953125,-201.66015625,NaN
1731719176162.4688,40.0390625,694.3359375,741.69921875,-149.4140625,NaN
1731719176166.375,256.34765625,914.0625,988.76953125,85.44921875,NaN
1731719176170.2812,-86.9140625,-406.25,-107.91015625,83.984375,NaN
1731719176174.1875,-401.85546875,-823.73046875,-476.07421875,-166.015625,NaN
1731719176178.0938,-39.55078125,35.15625,303.7109375,-110.3515625,NaN
1731719176182,289.0625,-117.1875,202.1484375,98.6328125,NaN
1731719176185.9062,-64.94140625,-413.0859375,-125,18.06640625,NaN
1731719176189.8125,-381.8359375,-470.21484375,-206.54296875,-143.06640625,NaN
1731719176193.7188,-169.921875,143.5546875,319.82421875,-195.3125,NaN
1731719176197.625,222.65625,959.9609375,977.5390625,-33.203125,NaN
1731719176201.5312,102.5390625,562.98828125,587.40234375,91.30859375,NaN
1731719176205.4375,-298.33984375,-540.52734375,-381.34765625,-35.15625,NaN
1731719176209.3438,-277.83203125,-333.984375,-178.22265625,-201.171875,NaN
1731719176213.25,124.0234375,867.67578125,860.3515625,-97.16796875,NaN
1731719176217.1562,228.02734375,518.06640625,592.28515625,128.90625,NaN
1731719176221.0625,-196.77734375,-763.18359375,-602.5390625,36.62109375,NaN
1731719176224.9688,-358.88671875,-1000,-1000,-194.3359375,NaN
1731719176228.875,-6.34765625,121.09375,57.6171875,-200.1953125,NaN
1731719176232.7812,199.21875,999.51171875,948.73046875,18.06640625,NaN
1731719176236.6875,-61.03515625,-294.43359375,-209.9609375,94.23828125,NaN
1731719176240.5938,-347.16796875,-941.40625,-890.625,-147.94921875,NaN
1731719176244.5,-137.20703125,306.640625,236.328125,-231.4453125,NaN
1731719176248.4062,213.37890625,999.51171875,999.51171875,-7.8125,NaN
1731719176252.3125,43.9453125,237.3046875,259.765625,75.68359375,NaN
1731719176256.2188,-331.54296875,-825.1953125,-669.43359375,-115.234375,NaN
1731719176260.125,-197.265625,134.27734375,83.984375,-243.1640625,NaN
1731719176264.0312,218.75,999.51171875,908.69140625,-73.2421875,NaN
1731719176267.9375,183.10546875,60.05859375,76.66015625,149.4140625,NaN
1731719176271.8438,-262.20703125,-1000,-1000,-10.7421875,NaN
1731719176275.75,-371.09375,-367.1875,-418.45703125,-280.76171875,NaN
1731719176279.6562,78.125,940.91796875,811.5234375,-128.41796875,NaN
1731719176283.5625,232.421875,416.50390625,425.29296875,123.53515625,NaN
1731719176287.4688,-187.01171875,-829.58984375,-726.07421875,36.62109375,NaN
1731719176291.375,-403.3203125,-594.23828125,-528.3203125,-209.9609375,NaN
1731719176295.2812,-7.8125,480.95703125,424.8046875,-161.1328125,NaN
1731719176299.1875,279.78515625,488.28125,412.59765625,76.171875,NaN
1731719176303.0938,-85.9375,-571.77734375,-532.71484375,66.40625,NaN
1731719176307,-409.66796875,-928.7109375,-874.0234375,-150.87890625,NaN
1731719176310.9062,-110.83984375,-84.47265625,-108.3984375,-181.15234375,NaN
1731719176314.8125,272.4609375,114.2578125,124.0234375,45.41015625,NaN
1731719176318.7188,30.2734375,-625,-537.109375,67.3828125,NaN
1731719176322.625,-386.71875,-645.99609375,-610.3515625,-141.6015625,NaN
1731719176326.5312,-196.77734375,-233.3984375,-285.64453125,-187.98828125,NaN
1731719176330.4375,219.23828125,602.5390625,432.6171875,-56.15234375,NaN
1731719176334.3438,151.85546875,379.39453125,203.125,64.94140625,NaN
1731719176338.25,-269.53125,-677.734375,-706.54296875,-41.015625,NaN
1731719176342.1562,-321.2890625,-595.703125,-573.2421875,-184.5703125,NaN
1731719176346.0625,80.078125,592.28515625,562.98828125,-136.23046875,NaN
1731719176349.9688,253.90625,652.34375,639.6484375,86.42578125,NaN
1731719176353.875,-119.140625,-567.3828125,-523.4375,64.453125,NaN
1731719176357.7812,-320.3125,-1000,-884.27734375,-159.1796875,NaN
1731719176361.6875,16.11328125,-728.515625,-548.33984375,-142.578125,NaN
1731719176365.5938,173.33984375,433.10546875,362.79296875,-29.296875,NaN
1731719176369.5,-73.2421875,331.0546875,231.4453125,33.203125,NaN
1731719176373.4062,-338.8671875,-803.7109375,-748.046875,-107.91015625,NaN
1731719176377.3125,-153.3203125,24.4140625,8.7890625,-219.7265625,NaN
1731719176381.2188,205.56640625,999.51171875,999.51171875,-28.3203125,NaN
1731719176385.125,67.87109375,404.296875,348.6328125,124.0234375,NaN
1731719176389.0312,-331.0546875,-766.11328125,-677.24609375,-64.453125,NaN
1731719176392.9375,-280.76171875,-229.4921875,-225.09765625,-246.09375,NaN
1731719176396.8438,171.875,999.51171875,872.55859375,-119.140625,NaN
1731719176400.75,224.609375,602.05078125,498.046875,97.16796875,NaN
1731719176404.6562,-220.21484375,-726.5625,-692.3828125,28.3203125,NaN
1731719176408.5625,-329.1015625,-865.72265625,-780.76171875,-177.24609375,NaN
1731719176412.4688,43.45703125,391.6015625,367.1875,-151.85546875,NaN
1731719176416.375,241.2109375,710.44921875,612.3046875,77.63671875,NaN
1731719176420.2812,-20.5078125,-703.125,-670.41015625,152.83203125,NaN
1731719176424.1875,-389.6484375,-840.8203125,-791.9921875,-176.26953125,NaN
1731719176428.0938,-114.2578125,515.625,503.41796875,-256.34765625,NaN
1731719176432,270.01953125,932.12890625,937.98828125,28.80859375,NaN
1731719176435.9062,1.46484375,-25.87890625,80.56640625,82.03125,NaN
1731719176439.8125,-353.515625,-492.67578125,-345.703125,-134.765625,NaN
1731719176443.7188,-168.45703125,324.70703125,347.16796875,-204.1015625,NaN
1731719176447.625,232.91015625,855.95703125,782.71484375,11.23046875,NaN
1731719176451.5312,124.51171875,-49.31640625,82.03125,135.25390625,NaN
1731719176455.4375,-334.9609375,-978.515625,-675.29296875,-76.171875,NaN
1731719176459.3438,-335.44921875,-112.3046875,26.85546875,-257.8125,NaN
1731719176463.25,193.84765625,670.41015625,736.81640625,-33.203125,NaN
1731719176467.1562,245.1171875,-485.3515625,-211.42578125,158.203125,NaN
1731719176471.0625,-269.04296875,-1000,-689.94140625,-43.9453125,NaN
1731719176474.9688,-364.2578125,-382.32421875,-194.82421875,-229.98046875,NaN
1731719176478.875,10.25390625,566.89453125,633.30078125,-177.24609375,NaN
1731719176482.7812,215.33203125,860.83984375,881.34765625,29.296875,NaN
1731719176486.6875,-106.93359375,-15.13671875,113.76953125,39.55078125,NaN
1731719176490.5938,-361.81640625,-573.73046875,-312.01171875,-126.46484375,NaN
1731719176494.5,-80.56640625,240.234375,403.80859375,-160.15625,NaN
1731719176498.4062,254.8828125,860.3515625,933.59375,26.85546875,NaN
1731719176502.3125,46.875,-103.02734375,125,106.93359375,NaN
1731719176506.2188,-314.94140625,-850.09765625,-551.26953125,-80.56640625,NaN
1731719176510.125,-160.15625,-586.42578125,-242.1875,-160.64453125,NaN
1731719176514.0312,200.1953125,476.5625,630.859375,-21.97265625,NaN
1731719176517.9375,113.76953125,749.51171875,785.64453125,92.7734375,NaN
1731719176521.8438,-245.60546875,-574.21875,-274.4140625,5.37109375,NaN
1731719176525.75,-260.25390625,-695.3125,-455.56640625,-167.96875,NaN
1731719176529.6562,123.046875,657.2265625,679.6875,-136.71875,NaN
1731719176533.5625,239.74609375,884.27734375,907.2265625,80.078125,NaN
1731719176537.4688,-155.2734375,-454.1015625,-292.96875,72.75390625,NaN
1731719176541.375,-347.16796875,-764.6484375,-550.29296875,-156.73828125,NaN
1731719176545.2812,22.94921875,425.29296875,526.85546875,-163.57421875,NaN
1731719176549.1875,264.6484375,707.03125,832.51953125,50.78125,NaN
1731719176553.0938,11.23046875,-403.80859375,-252.9296875,119.62890625,NaN
1731719176557,-314.453125,-1000,-923.828125,-71.77734375,NaN
1731719176560.9062,-162.59765625,126.953125,220.21484375,-214.84375,NaN
1731719176564.8125,230.95703125,999.51171875,999.51171875,-7.8125,NaN
1731719176568.7188,41.015625,358.88671875,527.34375,104.00390625,NaN
1731719176572.625,-351.07421875,-512.20703125,-192.3828125,-84.9609375,NaN
1731719176576.5312,-224.12109375,135.25390625,319.3359375,-180.17578125,NaN
1731719176580.4375,217.7734375,999.51171875,999.51171875,-14.6484375,NaN
1731719176584.3438,174.8046875,274.4140625,489.2578125,117.67578125,NaN
1731719176588.25,-280.2734375,-721.19140625,-335.9375,-22.4609375,NaN
1731719176592.1562,-311.5234375,-453.125,-103.02734375,-165.52734375,NaN
1731719176596.0625,111.328125,519.04296875,735.3515625,-78.61328125,NaN
1731719176599.9688,253.90625,96.6796875,395.01953125,128.41796875,NaN
1731719176603.875,-151.3671875,-1000,-615.72265625,65.91796875,NaN
1731719176607.7812,-396.484375,-618.1640625,-309.08203125,-183.10546875,NaN
1731719176611.6875,-23.92578125,458.49609375,622.0703125,-139.16015625,NaN
1731719176615.5938,265.13671875,740.72265625,874.51171875,76.171875,NaN
1731719176619.5,-48.33984375,-84.9609375,129.39453125,57.6171875,NaN
1731719176623.4062,-382.32421875,-577.1484375,-281.73828125,-147.94921875,NaN
1731719176627.3125,-150.87890625,124.0234375,339.35546875,-177.24609375,NaN
1731719176631.2188,223.6328125,897.4609375,958.0078125,8.30078125,NaN
1731719176635.125,119.140625,197.75390625,334.47265625,131.8359375,NaN
1731719176639.0312,-284.1796875,-939.94140625,-589.35546875,-41.9921875,NaN
1731719176642.9375,-222.65625,-736.328125,-340.8203125,-157.71484375,NaN
1731719176646.8438,203.125,-426.7578125,-81.0546875,-15.625,NaN
1731719176650.75,106.93359375,-67.87109375,147.94921875,28.80859375,NaN
1731719176654.6562,-269.53125,-303.22265625,-62.5,-23.92578125,NaN
1731719176658.5625,-310.546875,-468.75,-174.8046875,-170.41015625,NaN
1731719176662.4688,59.5703125,526.85546875,628.41796875,-152.83203125,NaN
1731719176666.375,254.39453125,972.16796875,979.98046875,50.29296875,NaN
1731719176670.2812,-80.078125,-27.34375,186.5234375,82.03125,NaN
1731719176674.1875,-384.765625,-740.234375,-393.06640625,-139.6484375,NaN
1731719176678.0938,-104.4921875,339.35546875,468.26171875,-201.171875,NaN
1731719176682,253.90625,999.51171875,999.51171875,35.64453125,NaN
1731719176685.9062,31.73828125,-83.984375,198.73046875,115.234375,NaN
1731719176689.8125,-298.33984375,-1000,-933.59375,-37.109375,NaN
1731719176693.7188,-156.25,-428.7109375,-339.35546875,-176.26953125,NaN
1731719176697.625,177.734375,971.6796875,999.51171875,-75.1953125,NaN
1731719176701.5312,129.8828125,504.39453125,616.2109375,120.60546875,NaN
1731719176705.4375,-264.16015625,-833.49609375,-535.15625,-9.765625,NaN
1731719176709.3438,-308.59375,-148.4375,57.6171875,-238.28125,NaN
1731719176713.25,129.39453125,999.51171875,999.51171875,-97.65625,NaN
1731719176717.1562,213.37890625,597.65625,698.2421875,124.51171875,NaN
1731719176721.0625,-220.703125,-553.7109375,-209.47265625,14.6484375,NaN
1731719176724.9688,-393.06640625,-297.36328125,-18.5546875,-223.6328125,NaN
1731719176728.875,-7.32421875,830.56640625,887.6953125,-137.6953125,NaN
1731719176732.7812,281.25,496.58203125,701.66015625,156.25,NaN
1731719176736.6875,-41.9921875,-881.8359375,-607.91015625,128.41796875,NaN
1731719176740.5938,-418.9453125,-957.51953125,-754.8828125,-176.7578125,NaN
1731719176744.5,-123.53515625,356.4453125,526.3671875,-230.46875,NaN
1731719176748.4062,281.73828125,736.328125,856.93359375,30.76171875,NaN
1731719176752.3125,24.90234375,-397.94921875,15.13671875,100.09765625,NaN
1731719176756.2188,-390.625,-908.203125,-463.37890625,-129.8828125,NaN
1731719176760.125,-202.63671875,1.953125,269.04296875,-217.7734375,NaN
1731719176764.0312,249.51171875,624.0234375,841.796875,-10.7421875,NaN
1731719176767.9375,137.20703125,-11.71875,309.08203125,110.83984375,NaN
1731719176771.8438,-297.36328125,-674.8046875,-300.78125,-66.40625,NaN
1731719176775.75,-290.0390625,-217.7734375,103.515625,-222.16796875,NaN
1731719176779.6562,155.76171875,569.82421875,849.12109375,-77.63671875,NaN
1731719176783.5625,223.14453125,331.54296875,644.53125,107.421875,NaN
1731719176787.4688,-203.125,-454.1015625,-82.51953125,20.01953125,NaN
1731719176791.375,-328.61328125,-556.15234375,-155.2734375,-148.92578125,NaN
1731719176795.2812,37.109375,-49.8046875,316.40625,-115.234375,NaN
1731719176799.1875,218.26171875,396.484375,658.69140625,14.6484375,NaN
1731719176803.0938,-85.44921875,10.7421875,302.24609375,26.85546875,NaN
1731719176807,-331.54296875,-922.8515625,-446.2890625,-101.5625,NaN
1731719176810.9062,-92.7734375,-302.734375,84.9609375,-149.4140625,NaN
1731719176814.8125,214.84375,839.84375,988.28125,0.48828125,NaN
1731719176818.7188,43.45703125,286.1328125,522.4609375,77.63671875,NaN
1731719176822.625,-317.87109375,-785.64453125,-302.24609375,-86.9140625,NaN
1731719176826.5312,-194.3359375,-552.24609375,-24.90234375,-181.15234375,NaN
1731719176830.4375,182.6171875,592.28515625,838.37890625,-64.453125,NaN
1731719176834.3438,124.0234375,539.0625,828.125,57.12890625,NaN
1731719176838.25,-229.98046875,-684.5703125,-383.7890625,20.99609375,NaN
1731719176842.1562,-303.22265625,-761.71875,-653.80859375,-156.25,NaN
1731719176846.0625,53.22265625,579.58984375,663.57421875,-157.71484375,NaN
1731719176849.9688,226.07421875,968.75,999.51171875,72.75390625,NaN
1731719176853.875,-161.62109375,-250.48828125,121.58203125,53.22265625,NaN
1731719176857.7812,-395.01953125,-518.06640625,-64.94140625,-175.78125,NaN
1731719176861.6875,-66.40625,690.4296875,814.94140625,-201.66015625,NaN
1731719176865.5938,246.58203125,931.15234375,999.51171875,52.24609375,NaN
1731719176869.5,-6.34765625,-246.58203125,12.6953125,109.375,NaN
1731719176873.4062,-347.16796875,-1000,-770.99609375,-125.9765625,NaN
1731719176877.3125,-170.41015625,-192.87109375,151.3671875,-212.890625,NaN
1731719176881.2188,210.9375,999.51171875,999.51171875,-13.671875,NaN
1731719176885.125,129.8828125,-39.55078125,95.21484375,168.45703125,NaN
1731719176889.0312,-332.03125,-1000,-764.6484375,-60.546875,NaN
1731719176892.9375,-257.32421875,101.07421875,390.13671875,-229.4921875,NaN
1731719176896.8438,232.91015625,926.26953125,999.51171875,-26.3671875,NaN
1731719176900.75,199.21875,418.45703125,626.953125,102.05078125,NaN
1731719176904.6562,-248.046875,-434.08203125,-51.26953125,-11.71875,NaN
1731719176908.5625,-370.1171875,-202.63671875,122.55859375,-187.01171875,NaN
1731719176912.4688,50.29296875,812.98828125,909.66796875,-111.328125,NaN
1731719176916.375,219.7265625,656.25,814.94140625,69.82421875,NaN
1731719176920.2812,-150.390625,-616.69921875,-207.51953125,7.8125,NaN
1731719176924.1875,-373.046875,-957.51953125,-520.99609375,-174.8046875,NaN
1731719176928.0938,-31.73828125,-174.31640625,263.18359375,-140.625,NaN
1731719176932,291.9921875,-149.4140625,313.96484375,68.84765625,NaN
1731719176935.9062,-66.40625,-480.46875,-50.29296875,34.66796875,NaN
1731719176939.8125,-386.71875,-537.59765625,-96.19140625,-123.046875,NaN
1731719176943.7188,-174.31640625,45.8984375,402.34375,-190.4296875,NaN
1731719176947.625,207.51953125,916.9921875,999.51171875,-33.69140625,NaN
1731719176951.5312,134.27734375,363.76953125,581.0546875,111.81640625,NaN
1731719176955.4375,-287.59765625,-728.02734375,-240.72265625,-23.4375,NaN
1731719176959.3438,-292.96875,-334.9609375,140.625,-195.3125,NaN
1731719176963.25,141.6015625,873.046875,999.51171875,-81.54296875,NaN
1731719176967.1562,229.98046875,471.6796875,679.19921875,142.578125,NaN
1731719176971.0625,-167.96875,-764.16015625,-291.9921875,57.6171875,NaN
1731719176974.9688,-290.0390625,-1000,-759.765625,-123.046875,NaN
1731719176978.875,21.97265625,-106.4453125,121.58203125,-124.51171875,NaN
1731719176982.7812,196.77734375,875.9765625,999.51171875,24.90234375,NaN
1731719176986.6875,-77.63671875,20.01953125,352.5390625,82.51953125,NaN
1731719176990.5938,-333.49609375,-862.3046875,-506.8359375,-88.37890625,NaN
1731719176994.5,-75.68359375,200.1953125,353.515625,-182.6171875,NaN
1731719176998.4062,244.62890625,999.51171875,999.51171875,17.578125,NaN
1731719177002.3125,28.3203125,214.84375,479.00390625,131.34765625,NaN
1731719177006.2188,-327.63671875,-746.58203125,-250,-68.84765625,NaN
1731719177010.125,-199.70703125,148.92578125,427.734375,-180.6640625,NaN
1731719177014.0312,205.56640625,953.61328125,999.51171875,9.27734375,NaN
1731719177017.9375,187.01171875,71.2890625,446.77734375,179.19921875,NaN
1731719177021.8438,-231.93359375,-1000,-723.6328125,31.73828125,NaN
1731719177025.75,-365.72265625,-130.37109375,84.47265625,-245.1171875,NaN
1731719177029.6562,83.49609375,999.51171875,999.51171875,-93.75,NaN
1731719177033.5625,245.60546875,540.52734375,670.41015625,155.76171875,NaN
1731719177037.4688,-157.2265625,-762.6953125,-313.4765625,62.98828125,NaN
1731719177041.375,-389.6484375,-666.015625,-222.16796875,-198.2421875,NaN
1731719177045.2812,10.7421875,701.66015625,823.73046875,-152.83203125,NaN
1731719177049.1875,303.22265625,602.05078125,741.69921875,93.75,NaN
1731719177053.0938,-85.44921875,-387.20703125,37.109375,51.26953125,NaN
1731719177057,-376.953125,-703.125,-284.1796875,-136.23046875,NaN
1731719177060.9062,-94.23828125,-140.13671875,199.70703125,-128.41796875,NaN
1731719177064.8125,219.7265625,515.625,800.78125,27.34375,NaN
1731719177068.7188,-1.953125,164.55078125,496.58203125,71.2890625,NaN
1731719177072.625,-367.1875,-332.51953125,106.4453125,-116.69921875,NaN
1731719177076.5312,-230.95703125,257.32421875,583.984375,-204.1015625,NaN
1731719177080.4375,211.42578125,599.12109375,886.71875,7.32421875,NaN
1731719177084.3438,121.58203125,278.3203125,658.69140625,93.75,NaN
1731719177088.25,-326.171875,-157.71484375,190.4296875,-58.59375,NaN
1731719177092.1562,-316.40625,-234.375,175.78125,-182.12890625,NaN
1731719177096.0625,119.140625,540.52734375,771.484375,-82.51953125,NaN
1731719177099.9688,193.359375,930.6640625,982.421875,56.15234375,NaN
1731719177103.875,-190.91796875,290.52734375,604.4921875,20.01953125,NaN
1731719177107.7812,-319.3359375,-622.0703125,-101.5625,-95.21484375,NaN
1731719177111.6875,3.41796875,-716.796875,-159.1796875,-92.7734375,NaN
1731719177115.5938,159.1796875,485.83984375,794.43359375,-45.41015625,NaN
1731719177119.5,-94.7265625,404.296875,652.34375,-0.9765625,NaN
1731719177123.4062,-402.34375,-711.9140625,-258.7890625,-146.97265625,NaN
1731719177127.3125,-222.65625,94.7265625,368.1640625,-257.32421875,NaN
1731719177131.2188,128.41796875,999.51171875,999.51171875,-91.796875,NaN
1731719177135.125,-11.23046875,547.8515625,678.22265625,45.41015625,NaN
1731719177139.0312,-351.07421875,-708.984375,-273.92578125,-104.00390625,NaN
1731719177142.9375,-328.125,-171.875,149.4140625,-251.953125,NaN
1731719177146.8438,57.6171875,999.51171875,999.51171875,-121.09375,NaN
1731719177150.75,109.86328125,566.40625,762.6953125,39.0625,NaN
1731719177154.6562,-273.92578125,-776.85546875,-520.01953125,-37.59765625,NaN
1731719177158.5625,-427.734375,-870.1171875,-655.2734375,-278.80859375,NaN
1731719177162.4688,-79.1015625,464.35546875,652.83203125,-278.80859375,NaN
1731719177166.375,142.08984375,891.11328125,999.51171875,-12.20703125,NaN
1731719177170.2812,-174.8046875,-530.76171875,-255.859375,9.765625,NaN
1731719177174.1875,-484.375,-843.26171875,-535.64453125,-270.01953125,NaN
1731719177178.0938,-196.77734375,549.31640625,722.16796875,-293.9453125,NaN
1731719177182,180.17578125,867.67578125,949.21875,-28.3203125,NaN
1731719177185.9062,-44.921875,-351.5625,41.9921875,29.78515625,NaN
1731719177189.8125,-441.89453125,-762.20703125,-276.3671875,-220.703125,NaN
1731719177193.7188,-256.8359375,224.12109375,533.69140625,-291.9921875,NaN
1731719177197.625,199.70703125,717.28515625,934.5703125,-63.96484375,NaN
1731719177201.5312,90.33203125,-211.9140625,249.0234375,68.84765625,NaN
1731719177205.4375,-381.8359375,-1000,-381.34765625,-120.1171875,NaN
1731719177209.3438,-374.0234375,-513.671875,4.8828125,-287.109375,NaN
1731719177213.25,95.21484375,267.08984375,687.98828125,-97.65625,NaN
1731719177217.1562,166.50390625,-420.8984375,60.05859375,96.19140625,NaN
1731719177221.0625,-303.22265625,-1000,-637.6953125,-80.078125,NaN
1731719177224.9688,-416.9921875,-833.984375,-433.10546875,-239.2578125,NaN
1731719177228.875,-51.7578125,10.7421875,334.9609375,-195.80078125,NaN
1731719177232.7812,163.0859375,541.015625,773.92578125,-13.18359375,NaN
1731719177236.6875,-145.99609375,-336.9140625,0.9765625,-3.41796875,NaN
1731719177240.5938,-434.08203125,-931.640625,-483.3984375,-207.51953125,NaN
1731719177244.5,-163.0859375,-133.7890625,242.1875,-252.9296875,NaN
1731719177248.4062,172.36328125,404.296875,733.88671875,-51.7578125,NaN
1731719177252.3125,-43.9453125,-430.17578125,2.44140625,17.578125,NaN
1731719177256.2188,-409.1796875,-999.51171875,-516.6015625,-185.05859375,NaN
1731719177260.125,-253.41796875,-887.20703125,-293.9453125,-231.4453125,NaN
1731719177264.0312,105.95703125,-151.85546875,352.05078125,-92.28515625,NaN
1731719177267.9375,6.34765625,-5.37109375,412.59765625,-6.8359375,NaN
1731719177271.8438,-386.71875,-909.1796875,-328.125,-123.53515625,NaN
1731719177275.75,-402.34375,-641.6015625,-86.9140625,-300.78125,NaN
1731719177279.6562,-7.32421875,745.60546875,916.9921875,-209.9609375,NaN
1731719177283.5625,142.08984375,776.3671875,916.50390625,39.0625,NaN
1731719177287.4688,-228.515625,-554.6875,-96.19140625,-21.97265625,NaN
1731719177291.375,-442.87109375,-724.609375,-200.1953125,-245.1171875,NaN
1731719177295.2812,-88.8671875,326.171875,750.48828125,-217.28515625,NaN
1731719177299.1875,147.4609375,702.1484375,999.51171875,-32.71484375,NaN
1731719177303.0938,-91.30859375,-325.1953125,64.94140625,64.94140625,NaN
1731719177307,-399.4140625,-962.890625,-771.484375,-142.08984375,NaN
1731719177310.9062,-256.8359375,257.32421875,458.49609375,-308.10546875,NaN
1731719177314.8125,166.50390625,999.51171875,999.51171875,-59.5703125,NaN
1731719177318.7188,21.484375,-150.390625,73.73046875,69.82421875,NaN
1731719177322.625,-401.85546875,-1000,-788.0859375,-155.2734375,NaN
1731719177326.5312,-328.125,-382.32421875,55.17578125,-315.4296875,NaN
1731719177330.4375,105.95703125,788.0859375,999.51171875,-125,NaN
1731719177334.3438,87.40234375,2.9296875,400.87890625,50.78125,NaN
1731719177338.25,-333.49609375,-1000,-528.3203125,-93.75,NaN
1731719177342.1562,-385.7421875,-705.078125,-176.26953125,-262.20703125,NaN
1731719177346.0625,13.671875,344.23828125,702.63671875,-173.33984375,NaN
1731719177349.9688,204.58984375,-74.21875,289.55078125,64.453125,NaN
1731719177353.875,-226.5625,-1000,-575.68359375,-12.20703125,NaN
1731719177357.7812,-492.1875,-666.9921875,-219.23828125,-270.01953125,NaN
1731719177361.6875,-108.3984375,315.4296875,592.7734375,-223.14453125,NaN
1731719177365.5938,162.109375,807.12890625,999.51171875,-17.578125,NaN
1731719177369.5,-92.28515625,-85.9375,273.92578125,18.5546875,NaN
1731719177373.4062,-394.53125,-849.609375,-412.59765625,-147.4609375,NaN
1731719177377.3125,-186.5234375,-103.515625,263.671875,-222.16796875,NaN
1731719177381.2188,191.40625,674.31640625,970.21484375,-54.19921875,NaN
1731719177385.125,18.06640625,285.64453125,599.12109375,18.06640625,NaN
1731719177389.0312,-364.2578125,-604.00390625,-119.62890625,-137.6953125,NaN
1731719177392.9375,-233.88671875,-538.0859375,-9.27734375,-204.1015625,NaN
1731719177396.8438,190.91796875,-273.92578125,223.6328125,-41.50390625,NaN
1731719177400.75,86.9140625,-12.20703125,385.25390625,29.296875,NaN
1731719177404.6562,-326.66015625,-421.38671875,-33.203125,-68.359375,NaN
1731719177408.5625,-394.04296875,-620.1171875,-128.90625,-232.91015625,NaN
1731719177412.4688,-5.859375,523.92578125,746.09375,-205.078125,NaN
1731719177416.375,155.2734375,942.87109375,991.69921875,2.9296875,NaN
1731719177420.2812,-177.24609375,-78.61328125,262.6953125,19.53125,NaN
1731719177424.1875,-434.08203125,-796.875,-271.97265625,-205.56640625,NaN
1731719177428.0938,-171.875,185.05859375,464.84375,-257.32421875,NaN
1731719177432,155.76171875,999.51171875,999.51171875,-40.52734375,NaN
1731719177435.9062,-61.03515625,77.1484375,489.74609375,50.29296875,NaN
1731719177439.8125,-340.33203125,-1000,-766.11328125,-64.453125,NaN
1731719177443.7188,-198.2421875,-480.95703125,-382.32421875,-217.28515625,NaN
1731719177447.625,84.47265625,951.171875,999.51171875,-133.7890625,NaN
1731719177451.5312,48.33984375,582.51953125,769.04296875,80.56640625,NaN
1731719177455.4375,-317.3828125,-799.8046875,-188.96484375,-48.828125,NaN
1731719177459.3438,-368.1640625,-196.77734375,245.1171875,-271.97265625,NaN
1731719177463.25,52.734375,999.51171875,999.51171875,-166.015625,NaN
1731719177467.1562,184.5703125,672.8515625,812.01171875,75.68359375,NaN
1731719177471.0625,-239.74609375,-466.796875,65.4296875,5.37109375,NaN
1731719177474.9688,-416.015625,-304.6875,215.33203125,-235.3515625,NaN
1731719177478.875,-31.25,895.99609375,999.51171875,-204.58984375,NaN
1731719177482.7812,236.328125,592.7734375,777.34375,88.37890625,NaN
1731719177486.6875,-114.2578125,-661.62109375,-28.80859375,62.98828125,NaN
1731719177490.5938,-466.796875,-325.68359375,272.94921875,-230.46875,NaN
1731719177494.5,-139.16015625,759.27734375,976.07421875,-208.0078125,NaN
1731719177498.4062,248.046875,657.71484375,835.44921875,64.94140625,NaN
1731719177502.3125,0.48828125,-271.484375,265.13671875,82.03125,NaN
1731719177506.2188,-401.3671875,-435.05859375,72.75390625,-168.45703125,NaN
1731719177510.125,-234.375,256.8359375,562.01171875,-234.375,NaN
1731719177514.0312,155.2734375,942.87109375,999.51171875,-77.1484375,NaN
1731719177517.9375,67.87109375,589.84375,811.03515625,65.91796875,NaN
1731719177521.8438,-317.87109375,-279.296875,101.07421875,-52.24609375,NaN
1731719177525.75,-320.3125,-57.6171875,262.6953125,-214.84375,NaN
1731719177529.6562,105.46875,448.2421875,699.70703125,-106.93359375,NaN
1731719177533.5625,149.90234375,222.65625,497.0703125,42.48046875,NaN
1731719177537.4688,-242.67578125,-298.33984375,23.4375,-31.25,NaN
1731719177541.375,-344.7265625,-540.52734375,-229.00390625,-187.98828125,NaN
1731719177545.2812,-21.484375,9.27734375,297.36328125,-188.96484375,NaN
1731719177549.1875,179.19921875,667.96875,879.8828125,-46.38671875,NaN
1731719177553.0938,-89.84375,-63.96484375,210.9375,17.08984375,NaN
1731719177557,-366.69921875,-884.27734375,-455.56640625,-129.8828125,NaN
1731719177560.9062,-149.4140625,-202.63671875,111.328125,-187.98828125,NaN
1731719177564.8125,135.25390625,917.96875,957.51953125,-84.47265625,NaN
1731719177568.7188,-12.20703125,476.5625,579.1015625,39.0625,NaN
1731719177572.625,-341.30859375,-916.9921875,-647.94921875,-63.4765625,NaN
1731719177576.5312,-253.90625,-551.7578125,-271.484375,-209.9609375,NaN
1731719177580.4375,106.4453125,657.2265625,797.8515625,-104.00390625,NaN
1731719177584.3438,56.640625,545.8984375,687.98828125,18.06640625,NaN
1731719177588.25,-277.34375,-599.12109375,-357.91015625,-24.90234375,NaN
1731719177592.1562,-341.30859375,-756.8359375,-646.97265625,-193.84765625,NaN
1731719177596.0625,-24.4140625,563.96484375,586.9140625,-219.7265625,NaN
1731719177599.9688,145.01953125,999.51171875,999.51171875,5.37109375,NaN
1731719177603.875,-197.265625,-298.828125,-82.03125,-0.48828125,NaN
1731719177607.7812,-407.71484375,-895.99609375,-527.83203125,-195.3125,NaN
1731719177611.6875,-111.328125,387.20703125,561.03515625,-202.1484375,NaN
1731719177615.5938,175.78125,926.26953125,970.21484375,-1.46484375,NaN
1731719177619.5,-57.12890625,-248.53515625,-44.43359375,55.17578125,NaN
1731719177623.4062,-363.76953125,-1000,-1000,-121.09375,NaN
1731719177627.3125,-192.3828125,-437.98828125,-241.69921875,-239.74609375,NaN
1731719177631.2188,124.51171875,753.90625,946.77734375,-87.890625,NaN
1731719177635.125,65.91796875,-144.04296875,5.37109375,114.2578125,NaN
1731719177639.0312,-360.3515625,-1000,-938.96484375,-97.65625,NaN
1731719177642.9375,-375,20.99609375,240.72265625,-317.3828125,NaN
1731719177646.8438,117.1875,918.9453125,999.51171875,-99.609375,NaN
1731719177650.75,156.25,457.51953125,634.27734375,64.453125,NaN
1731719177654.6562,-284.66796875,-362.79296875,9.27734375,-90.8203125,NaN
1731719177658.5625,-414.0625,-82.51953125,257.32421875,-276.85546875,NaN
1731719177662.4688,28.3203125,812.98828125,962.40234375,-161.1328125,NaN
1731719177666.375,242.67578125,557.12890625,823.2421875,56.15234375,NaN
1731719177670.2812,-150.87890625,-607.91015625,-143.06640625,-5.859375,NaN
1731719177674.1875,-422.36328125,-947.75390625,-497.0703125,-230.46875,NaN
1731719177678.0938,-86.9140625,-136.71875,276.85546875,-181.15234375,NaN
1731719177682,217.28515625,-142.08984375,322.75390625,48.828125,NaN
1731719177685.9062,-116.2109375,-416.50390625,-7.8125,-8.7890625,NaN
1731719177689.8125,-414.55078125,-314.94140625,64.94140625,-191.89453125,NaN
1731719177693.7188,-173.33984375,173.828125,504.8828125,-220.21484375,NaN
1731719177697.625,166.50390625,888.18359375,991.2109375,-52.734375,NaN
1731719177701.5312,6.8359375,577.63671875,771.97265625,53.22265625,NaN
1731719177705.4375,-356.93359375,-370.1171875,47.36328125,-97.65625,NaN
1731719177709.3438,-300.29296875,-244.62890625,174.31640625,-240.234375,NaN
1731719177713.25,82.03125,806.15234375,945.80078125,-123.046875,NaN
1731719177717.1562,167.48046875,540.0390625,730.95703125,88.37890625,NaN
1731719177721.0625,-220.703125,-648.92578125,-210.44921875,22.4609375,NaN
1731719177724.9688,-332.51953125,-1000,-609.86328125,-135.7421875,NaN
1731719177728.875,19.53125,-359.375,138.671875,-138.18359375,NaN
1731719177732.7812,156.25,851.5625,999.51171875,-23.4375,NaN
1731719177736.6875,-112.79296875,-5.859375,376.953125,28.3203125,NaN
1731719177740.5938,-374.51171875,-805.6640625,-285.15625,-151.85546875,NaN
1731719177744.5,-153.80859375,327.1484375,542.96875,-231.93359375,NaN
1731719177748.4062,174.31640625,999.51171875,999.51171875,-16.11328125,NaN
1731719177752.3125,28.80859375,111.328125,399.90234375,128.90625,NaN
1731719177756.2188,-315.4296875,-1000,-550.29296875,-69.82421875,NaN
1731719177760.125,-234.375,-130.859375,223.14453125,-251.953125,NaN
1731719177764.0312,170.41015625,844.23828125,999.51171875,-84.9609375,NaN
1731719177767.9375,135.7421875,14.6484375,417.96875,121.09375,NaN
1731719177771.8438,-283.203125,-1000,-796.38671875,-34.1796875,NaN
1731719177775.75,-383.30078125,-442.3828125,-135.25390625,-314.94140625,NaN
1731719177779.6562,56.640625,865.72265625,999.51171875,-164.55078125,NaN
1731719177783.5625,237.3046875,125,427.734375,120.1171875,NaN
1731719177787.4688,-208.49609375,-1000,-579.1015625,-6.8359375,NaN
1731719177791.375,-434.08203125,-546.875,-48.33984375,-261.71875,NaN
1731719177795.2812,-58.59375,548.828125,781.73828125,-185.546875,NaN
1731719177799.1875,175.29296875,829.1015625,927.24609375,17.08984375,NaN
1731719177803.0938,-96.19140625,-31.25,347.65625,34.1796875,NaN
1731719177807,-387.20703125,-381.34765625,119.62890625,-161.1328125,NaN
1731719177810.9062,-155.2734375,449.21875,802.734375,-222.65625,NaN
1731719177814.8125,239.2578125,237.79296875,588.8671875,16.11328125,NaN
1731719177818.7188,-6.34765625,-635.7421875,-78.125,61.03515625,NaN
1731719177822.625,-436.5234375,-330.078125,176.26953125,-166.9921875,NaN
1731719177826.5312,-247.55859375,211.42578125,640.13671875,-209.9609375,NaN
1731719177830.4375,146.97265625,840.33203125,998.046875,-55.17578125,NaN
1731719177834.3438,90.8203125,748.046875,866.69921875,77.63671875,NaN
1731719177838.25,-287.109375,-339.84375,161.1328125,-18.5546875,NaN
1731719177842.1562,-327.63671875,-542.48046875,69.3359375,-188.96484375,NaN
1731719177846.0625,55.6640625,404.78515625,756.34765625,-121.09375,NaN
1731719177849.9688,155.76171875,778.80859375,936.03515625,35.64453125,NaN
1731719177853.875,-190.4296875,-7.32421875,367.1875,-8.30078125,NaN
1731719177857.7812,-332.03125,-820.80078125,-204.58984375,-144.04296875,NaN
1731719177861.6875,-39.55078125,-155.2734375,303.22265625,-168.9453125,NaN
1731719177865.5938,162.109375,924.31640625,999.51171875,-34.1796875,NaN
1731719177869.5,-87.890625,302.24609375,583.984375,40.52734375,NaN
1731719177873.4062,-345.21484375,-855.95703125,-348.6328125,-100.5859375,NaN
1731719177877.3125,-134.27734375,-300.29296875,50.29296875,-183.10546875,NaN
1731719177881.2188,161.1328125,842.7734375,998.53515625,-42.48046875,NaN
1731719177885.125,11.23046875,164.0625,446.77734375,58.59375,NaN
1731719177889.0312,-374.51171875,-850.5859375,-389.6484375,-102.5390625,NaN
1731719177892.9375,-291.015625,-325.1953125,67.3828125,-221.6796875,NaN
1731719177896.8438,108.88671875,693.359375,937.5,-101.5625,NaN
1731719177900.75,79.58984375,395.99609375,743.1640625,38.57421875,NaN
1731719177904.6562,-219.7265625,-784.1796875,-534.1796875,27.34375,NaN
1731719177908.5625,-336.42578125,-771.97265625,-661.62109375,-194.3359375,NaN
1731719177912.4688,-68.359375,629.8828125,744.140625,-224.12109375,NaN
1731719177916.375,174.31640625,878.41796875,968.26171875,47.8515625,NaN
1731719177920.2812,-148.92578125,-483.3984375,-85.9375,47.36328125,NaN
1731719177924.1875,-425.78125,-739.2578125,-276.85546875,-194.82421875,NaN
1731719177928.0938,-117.67578125,521.97265625,708.0078125,-217.28515625,NaN
1731719177932,211.9140625,886.71875,965.33203125,8.30078125,NaN
1731719177935.9062,-45.41015625,-9.765625,305.17578125,46.875,NaN
1731719177939.8125,-420.8984375,-443.359375,-41.50390625,-177.734375,NaN
1731719177943.7188,-236.328125,424.31640625,598.6328125,-226.07421875,NaN
1731719177947.625,196.77734375,971.19140625,999.51171875,-1.46484375,NaN
1731719177951.5312,81.0546875,157.71484375,444.82421875,99.609375,NaN
1731719177955.4375,-349.12109375,-765.13671875,-265.13671875,-79.58984375,NaN
1731719177959.3438,-323.2421875,-166.50390625,212.40234375,-235.83984375,NaN
1731719177963.25,155.2734375,761.71875,914.55078125,-53.22265625,NaN
1731719177967.1562,211.9140625,-378.90625,-12.20703125,157.2265625,NaN
1731719177971.0625,-291.50390625,-1000,-527.83203125,-55.17578125,NaN
1731719177974.9688,-373.046875,-344.7265625,0.48828125,-224.609375,NaN
1731719177978.875,-4.8828125,540.0390625,703.61328125,-144.53125,NaN
1731719177982.7812,160.15625,916.015625,960.9375,17.578125,NaN
1731719177986.6875,-121.58203125,-128.41796875,102.05078125,16.6015625,NaN
1731719177990.5938,-362.79296875,-655.76171875,-284.66796875,-169.921875,NaN
1731719177994.5,-108.3984375,295.8984375,530.76171875,-195.80078125,NaN
1731719177998.4062,198.2421875,810.05859375,999.51171875,0.48828125,NaN
1731719178002.3125,-21.484375,-213.8671875,193.84765625,61.5234375,NaN
1731719178006.2188,-391.6015625,-922.8515625,-484.86328125,-139.16015625,NaN
1731719178010.125,-179.6875,-918.9453125,-411.1328125,-160.64453125,NaN
1731719178014.0312,148.92578125,-220.703125,214.84375,-47.8515625,NaN
1731719178017.9375,4.8828125,432.6171875,673.828125,-13.671875,NaN
1731719178021.8438,-300.29296875,-562.5,-174.8046875,-54.6875,NaN
1731719178025.75,-298.33984375,-500,-77.63671875,-196.2890625,NaN
1731719178029.6562,88.8671875,748.53515625,859.86328125,-134.27734375,NaN
1731719178033.5625,185.546875,751.953125,847.16796875,55.6640625,NaN
1731719178037.4688,-192.3828125,-547.8515625,-209.9609375,10.7421875,NaN
1731719178041.375,-388.671875,-750.48828125,-379.39453125,-189.453125,NaN
1731719178045.2812,-26.3671875,347.65625,640.625,-145.99609375,NaN
1731719178049.1875,234.375,494.62890625,812.5,44.43359375,NaN
1731719178053.0938,-61.03515625,-511.71875,-192.87109375,59.5703125,NaN
1731719178057,-363.76953125,-985.83984375,-820.80078125,-126.46484375,NaN
1731719178060.9062,-205.56640625,194.82421875,308.59375,-282.2265625,NaN
1731719178064.8125,160.64453125,999.51171875,999.51171875,-78.61328125,NaN
1731719178068.7188,53.22265625,-106.93359375,152.83203125,94.7265625,NaN
1731719178072.625,-363.76953125,-920.41015625,-489.2578125,-123.046875,NaN
1731719178076.5312,-289.55078125,229.00390625,492.1875,-274.4140625,NaN
1731719178080.4375,140.13671875,999.51171875,999.51171875,-72.75390625,NaN
1731719178084.3438,94.23828125,511.23046875,678.7109375,69.82421875,NaN
1731719178088.25,-289.0625,-415.0390625,-33.203125,-69.82421875,NaN
1731719178092.1562,-340.33203125,-435.05859375,-8.7890625,-218.75,NaN
1731719178096.0625,18.5546875,684.08203125,865.234375,-158.203125,NaN
1731719178099.9688,210.44921875,325.68359375,542.48046875,80.56640625,NaN
1731719178103.875,-172.8515625,-976.07421875,-473.14453125,48.33984375,NaN
1731719178107.7812,-415.0390625,-419.43359375,-73.2421875,-204.58984375,NaN
1731719178111.6875,-39.0625,653.80859375,784.1796875,-167.96875,NaN
1731719178115.5938,225.5859375,740.234375,886.23046875,32.71484375,NaN
1731719178119.5,-82.03125,-109.375,206.54296875,23.92578125,NaN
1731719178123.4062,-390.625,-663.57421875,-253.41796875,-164.0625,NaN
1731719178127.3125,-144.53125,-243.65234375,135.25390625,-171.38671875,NaN
1731719178131.2188,193.359375,445.3125,716.796875,5.859375,NaN
1731719178135.125,-1.953125,301.7578125,578.61328125,51.7578125,NaN
1731719178139.0312,-342.28515625,-666.50390625,-195.3125,-98.6328125,NaN
1731719178142.9375,-221.6796875,-790.0390625,-228.02734375,-175.78125,NaN
1731719178146.8438,138.18359375,-135.7421875,312.01171875,-58.59375,NaN
1731719178150.75,66.40625,203.125,516.6015625,11.23046875,NaN
1731719178154.6562,-285.64453125,-505.37109375,-129.8828125,-60.05859375,NaN
1731719178158.5625,-358.3984375,-851.07421875,-399.90234375,-209.9609375,NaN
1731719178162.4688,-2.9296875,272.94921875,520.5078125,-157.71484375,NaN
1731719178166.375,172.8515625,786.1328125,929.6875,31.73828125,NaN
1731719178170.2812,-144.53125,-268.06640625,81.0546875,17.08984375,NaN
1731719178174.1875,-386.71875,-930.6640625,-450.68359375,-195.80078125,NaN
1731719178178.0938,-118.1640625,33.69140625,337.40234375,-243.1640625,NaN
1731719178182,176.26953125,713.37890625,947.75390625,-21.484375,NaN
1731719178185.9062,-56.15234375,-290.52734375,213.8671875,54.6875,NaN
1731719178189.8125,-327.63671875,-1000,-898.92578125,-63.4765625,NaN
1731719178193.7188,-218.26171875,-569.3359375,-549.8046875,-206.54296875,NaN
1731719178197.625,88.37890625,715.33203125,884.765625,-126.953125,NaN
1731719178201.5312,68.359375,243.65234375,542.48046875,84.47265625,NaN
1731719178205.4375,-315.4296875,-929.6875,-440.91796875,-67.3828125,NaN
1731719178209.3438,-320.80078125,-271.97265625,183.10546875,-269.04296875,NaN
1731719178213.25,75.68359375,977.05078125,999.51171875,-150.390625,NaN
1731719178217.1562,155.76171875,393.5546875,614.2578125,76.171875,NaN
1731719178221.0625,-247.55859375,-843.75,-289.0625,-12.20703125,NaN
1731719178224.9688,-405.76171875,-463.8671875,4.39453125,-258.30078125,NaN
1731719178228.875,5.37109375,691.40625,903.3203125,-184.5703125,NaN
1731719178232.7812,210.9375,390.13671875,722.65625,64.453125,NaN
1731719178236.6875,-116.2109375,-943.84765625,-454.58984375,33.69140625,NaN
1731719178240.5938,-402.83203125,-923.828125,-424.8046875,-201.171875,NaN
1731719178244.5,-153.80859375,432.6171875,697.265625,-244.140625,NaN
1731719178248.4062,248.046875,621.58203125,785.15625,16.11328125,NaN
1731719178252.3125,15.625,-682.12890625,-150.87890625,79.1015625,NaN
1731719178256.2188,-412.109375,-949.21875,-414.0625,-194.3359375,NaN
1731719178260.125,-249.0234375,44.921875,394.53125,-276.3671875,NaN
1731719178264.0312,156.73828125,803.7109375,999.51171875,-69.3359375,NaN
1731719178267.9375,69.82421875,204.1015625,532.2265625,61.03515625,NaN
1731719178271.8438,-333.0078125,-563.4765625,-91.30859375,-99.609375,NaN
1731719178275.75,-309.5703125,-273.4375,163.0859375,-221.19140625,NaN
1731719178279.6562,83.49609375,404.296875,779.296875,-106.93359375,NaN
1731719178283.5625,116.69921875,410.64453125,819.82421875,35.15625,NaN
1731719178287.4688,-243.1640625,-256.8359375,196.2890625,-28.80859375,NaN
1731719178291.375,-330.078125,-634.765625,-162.59765625,-202.63671875,NaN
1731719178295.2812,5.859375,-148.92578125,304.6875,-175.29296875,NaN
1731719178299.1875,152.83203125,522.4609375,873.53515625,-28.3203125,NaN
1731719178303.0938,-136.23046875,59.08203125,422.8515625,-16.11328125,NaN
1731719178307,-366.2109375,-673.33984375,-160.64453125,-139.16015625,NaN
1731719178310.9062,-94.23828125,-690.4296875,-75.68359375,-125.48828125,NaN
1731719178314.8125,154.296875,300.29296875,642.08984375,-51.26953125,NaN
1731719178318.7188,-39.55078125,638.671875,851.07421875,-13.18359375,NaN
1731719178322.625,-334.47265625,-608.3984375,-118.65234375,-95.21484375,NaN
1731719178326.5312,-224.12109375,-532.2265625,17.08984375,-186.03515625,NaN
1731719178330.4375,137.6953125,723.14453125,909.1796875,-100.5859375,NaN
1731719178334.3438,73.2421875,810.05859375,960.9375,10.25390625,NaN
1731719178338.25,-250.48828125,-498.53515625,-148.4375,-22.4609375,NaN
1731719178342.1562,-319.82421875,-742.1875,-547.8515625,-193.84765625,NaN
1731719178346.0625,-25.390625,681.15234375,758.7890625,-198.2421875,NaN
1731719178349.9688,172.36328125,883.7890625,999.51171875,50.29296875,NaN
1731719178353.875,-158.69140625,-499.51171875,-265.13671875,57.12890625,NaN
1731719178357.7812,-404.78515625,-854.4921875,-621.58203125,-198.2421875,NaN
1731719178361.6875,-72.265625,360.83984375,606.93359375,-203.61328125,NaN
1731719178365.5938,215.8203125,726.07421875,900.390625,34.1796875,NaN
1731719178369.5,-80.56640625,-384.765625,-5.859375,46.875,NaN
1731719178373.4062,-388.18359375,-1000,-631.8359375,-148.4375,NaN
1731719178377.3125,-184.5703125,-269.04296875,131.34765625,-224.609375,NaN
1731719178381.2188,159.1796875,931.640625,999.51171875,-48.828125,NaN
1731719178385.125,73.73046875,-53.7109375,80.56640625,117.67578125,NaN
1731719178389.0312,-333.0078125,-1000,-999.51171875,-100.5859375,NaN
1731719178392.9375,-289.0625,-159.66796875,121.58203125,-268.5546875,NaN
1731719178396.8438,142.578125,906.73828125,999.51171875,-77.1484375,NaN
1731719178400.75,129.8828125,435.546875,647.4609375,77.1484375,NaN
1731719178404.6562,-265.13671875,-604.4921875,-178.22265625,-47.36328125,NaN
1731719178408.5625,-334.9609375,-405.2734375,-31.73828125,-218.75,NaN
1731719178412.4688,88.37890625,393.5546875,699.21875,-105.95703125,NaN
1731719178416.375,246.09375,234.86328125,605.46875,77.1484375,NaN
1731719178420.2812,-115.234375,-623.53515625,-206.0546875,53.7109375,NaN
1731719178424.1875,-370.1171875,-750.9765625,-335.44921875,-160.64453125,NaN
1731719178428.0938,-51.7578125,105.46875,533.69140625,-176.26953125,NaN
1731719178432,230.46875,265.13671875,673.828125,15.625,NaN
1731719178435.9062,-95.21484375,-32.2265625,325.1953125,-1.953125,NaN
1731719178439.8125,-392.578125,-369.62890625,16.6015625,-142.578125,NaN
1731719178443.7188,-203.61328125,148.4375,481.93359375,-226.07421875,NaN
1731719178447.625,152.83203125,972.65625,999.51171875,-65.4296875,NaN
1731719178451.5312,54.6875,536.62109375,653.3203125,71.2890625,NaN
1731719178455.4375,-333.49609375,-436.5234375,-35.15625,-95.21484375,NaN
1731719178459.3438,-318.359375,-177.24609375,239.2578125,-258.7890625,NaN
1731719178463.25,91.796875,795.8984375,942.3828125,-127.9296875,NaN
1731719178467.1562,176.7578125,497.0703125,708.0078125,101.5625,NaN
1731719178471.0625,-215.8203125,-656.73828125,-166.50390625,13.671875,NaN
1731719178474.9688,-321.77734375,-1000,-690.4296875,-165.0390625,NaN
1731719178478.875,-2.44140625,-321.2890625,26.85546875,-162.109375,NaN
1731719178482.7812,131.8359375,924.31640625,999.51171875,-47.8515625,NaN
1731719178486.6875,-95.703125,-20.99609375,270.5078125,35.15625,NaN
1731719178490.5938,-352.5390625,-816.40625,-361.81640625,-158.69140625,NaN
1731719178494.5,-122.0703125,322.75390625,542.96875,-222.65625,NaN
1731719178498.4062,203.125,999.51171875,999.51171875,-3.90625,NaN
1731719178502.3125,14.16015625,61.03515625,330.078125,93.75,NaN
1731719178506.2188,-319.3359375,-958.0078125,-549.8046875,-78.125,NaN
1731719178510.125,-200.68359375,-32.71484375,263.671875,-209.47265625,NaN
1731719178514.0312,202.63671875,858.3984375,999.51171875,-36.62109375,NaN
1731719178517.9375,159.66796875,-50.29296875,275.390625,131.34765625,NaN
1731719178521.8438,-257.32421875,-1000,-825.1953125,-20.99609375,NaN
1731719178525.75,-347.65625,-465.8203125,-138.18359375,-246.58203125,NaN
1731719178529.6562,46.38671875,872.0703125,999.51171875,-146.97265625,NaN
1731719178533.5625,197.75390625,502.44140625,652.34375,111.81640625,NaN
1731719178537.4688,-178.22265625,-906.25,-378.41796875,40.52734375,NaN
1731719178541.375,-396.97265625,-476.5625,3.41796875,-252.44140625,NaN
1731719178545.2812,-41.9921875,776.3671875,915.52734375,-204.58984375,NaN
1731719178549.1875,191.89453125,875,963.37890625,21.97265625,NaN
1731719178553.0938,-101.07421875,-54.6875,338.8671875,28.80859375,NaN
1731719178557,-354.4921875,-583.984375,-104.00390625,-143.06640625,NaN
1731719178560.9062,-97.65625,198.2421875,595.703125,-178.22265625,NaN
1731719178564.8125,241.69921875,283.203125,732.421875,29.78515625,NaN
1731719178568.7188,29.296875,-471.6796875,95.703125,62.98828125,NaN
1731719178572.625,-361.328125,-515.13671875,12.20703125,-146.484375,NaN
1731719178576.5312,-216.796875,135.7421875,543.9453125,-188.96484375,NaN
1731719178580.4375,190.91796875,758.7890625,999.51171875,-9.765625,NaN
1731719178584.3438,117.67578125,223.14453125,606.4453125,78.125,NaN
1731719178588.25,-297.8515625,-496.58203125,-5.859375,-61.5234375,NaN
1731719178592.1562,-290.0390625,-411.1328125,108.3984375,-168.45703125,NaN
1731719178596.0625,116.2109375,333.49609375,675.29296875,-92.28515625,NaN
1731719178599.9688,189.453125,758.30078125,981.4453125,49.8046875,NaN
1731719178603.875,-149.90234375,-30.2734375,406.73828125,41.9921875,NaN
1731719178607.7812,-287.59765625,-955.56640625,-338.37890625,-100.5859375,NaN
1731719178611.6875,-1.953125,-335.9375,212.40234375,-112.3046875,NaN
1731719178615.5938,181.15234375,852.5390625,999.51171875,17.578125,NaN
1731719178619.5,-56.640625,298.33984375,646.484375,66.89453125,NaN
1731719178623.4062,-306.640625,-910.15625,-342.7734375,-55.17578125,NaN
1731719178627.3125,-115.234375,-368.65234375,12.20703125,-148.92578125,NaN
1731719178631.2188,206.0546875,969.23828125,999.51171875,-17.578125,NaN
1731719178635.125,98.6328125,328.125,641.11328125,114.2578125,NaN
1731719178639.0312,-279.296875,-941.89453125,-539.55078125,-46.875,NaN
1731719178642.9375,-243.1640625,-525.87890625,-160.64453125,-191.89453125,NaN
1731719178646.8438,166.015625,694.3359375,918.45703125,-40.52734375,NaN
1731719178650.75,169.43359375,501.46484375,829.1015625,136.23046875,NaN
1731719178654.6562,-142.08984375,-788.0859375,-485.83984375,96.19140625,NaN
1731719178658.5625,-257.8125,-836.42578125,-704.58984375,-136.71875,NaN
1731719178662.4688,20.01953125,580.078125,734.375,-164.55078125,NaN
1731719178666.375,246.09375,826.66015625,934.5703125,94.23828125,NaN
1731719178670.2812,-93.26171875,-543.9453125,-60.05859375,69.82421875,NaN
1731719178674.1875,-375,-708.49609375,-92.7734375,-177.24609375,NaN
1731719178678.0938,-56.15234375,551.26953125,791.015625,-145.5078125,NaN
1731719178682,308.59375,940.4296875,999.51171875,132.8125,NaN
1731719178685.9062,54.19921875,-80.56640625,325.1953125,151.85546875,NaN
1731719178689.8125,-341.796875,-660.64453125,-122.55859375,-120.60546875,NaN
1731719178693.7188,-141.6015625,278.80859375,583.984375,-172.8515625,NaN
1731719178697.625,278.80859375,767.578125,967.28515625,68.359375,NaN
1731719178701.5312,176.7578125,-317.87109375,233.88671875,176.7578125,NaN
1731719178705.4375,-279.78515625,-1000,-358.88671875,-31.73828125,NaN
1731719178709.3438,-287.59765625,-91.30859375,350.5859375,-202.1484375,NaN
1731719178713.25,194.82421875,724.609375,962.40234375,17.578125,NaN
1731719178717.1562,216.796875,89.84375,534.1796875,176.26953125,NaN
1731719178721.0625,-259.765625,-235.3515625,323.2421875,-39.0625,NaN
1731719178724.9688,-336.9140625,148.92578125,568.84765625,-178.7109375,NaN
1731719178728.875,46.875,867.67578125,974.12109375,-108.88671875,NaN
1731719178732.7812,245.60546875,875,955.56640625,79.1015625,NaN
1731719178736.6875,-79.1015625,-130.37109375,237.3046875,70.80078125,NaN
1731719178740.5938,-346.6796875,-551.26953125,-86.42578125,-137.20703125,NaN
1731719178744.5,-66.89453125,348.6328125,662.109375,-149.90234375,NaN
1731719178748.4062,254.39453125,782.2265625,999.51171875,52.24609375,NaN
1731719178752.3125,32.2265625,-227.05078125,226.5625,119.140625,NaN
1731719178756.2188,-340.8203125,-855.95703125,-300.78125,-81.54296875,NaN
1731719178760.125,-138.18359375,-728.02734375,-146.97265625,-129.8828125,NaN
1731719178764.0312,219.23828125,-113.28125,355.46875,23.92578125,NaN
1731719178767.9375,77.1484375,458.0078125,733.3984375,63.4765625,NaN
1731719178771.8438,-253.90625,-415.52734375,-2.9296875,-20.5078125,NaN
1731719178775.75,-245.1171875,-263.671875,161.1328125,-166.50390625,NaN
1731719178779.6562,115.234375,893.06640625,986.328125,-91.796875,NaN
1731719178783.5625,203.61328125,883.30078125,910.15625,95.703125,NaN
1731719178787.4688,-134.765625,-304.19921875,52.734375,46.875,NaN
1731719178791.375,-292.96875,-565.91796875,-89.84375,-130.37109375,NaN
1731719178795.2812,39.0625,424.31640625,715.33203125,-97.65625,NaN
1731719178799.1875,237.3046875,506.34765625,809.5703125,63.4765625,NaN
1731719178803.0938,-15.13671875,-495.1171875,-223.6328125,134.27734375,NaN
1731719178807,-273.4375,-1000,-879.39453125,-49.31640625,NaN
1731719178810.9062,-114.74609375,-104.00390625,144.53125,-181.15234375,NaN
1731719178814.8125,205.078125,758.7890625,999.51171875,14.6484375,NaN
1731719178818.7188,71.2890625,-95.703125,128.90625,150.87890625,NaN
1731719178822.625,-305.17578125,-1000,-880.37109375,-44.921875,NaN
1731719178826.5312,-234.86328125,-203.125,145.5078125,-212.890625,NaN
1731719178830.4375,196.77734375,866.2109375,999.51171875,-40.52734375,NaN
1731719178834.3438,141.11328125,209.47265625,463.37890625,92.7734375,NaN
1731719178838.25,-273.4375,-893.06640625,-395.01953125,-37.109375,NaN
1731719178842.1562,-272.4609375,-794.921875,-279.296875,-177.734375,NaN
1731719178846.0625,88.37890625,263.671875,674.8046875,-104.4921875,NaN
1731719178849.9688,242.1875,16.6015625,436.5234375,103.515625,NaN
1731719178853.875,-140.625,-1000,-506.8359375,39.0625,NaN
1731719178857.7812,-395.01953125,-466.30859375,82.51953125,-197.265625,NaN
1731719178861.6875,-23.4375,603.515625,853.02734375,-137.6953125,NaN
1731719178865.5938,244.62890625,711.42578125,934.5703125,60.546875,NaN
1731719178869.5,-27.34375,-463.37890625,99.12109375,57.6171875,NaN
1731719178873.4062,-335.9375,-875.9765625,-286.1328125,-131.34765625,NaN
1731719178877.3125,-93.75,64.94140625,557.12890625,-113.76953125,NaN
1731719178881.2188,262.6953125,521.97265625,979.00390625,61.5234375,NaN
1731719178885.125,52.734375,60.546875,583.49609375,83.49609375,NaN
1731719178889.0312,-288.0859375,-846.6796875,-270.5078125,-37.59765625,NaN
1731719178892.9375,-165.52734375,-849.609375,-222.16796875,-128.41796875,NaN
1731719178896.8438,187.5,-2.9296875,619.140625,-38.0859375,NaN
1731719178900.75,107.91015625,352.5390625,845.21484375,48.828125,NaN
1731719178904.6562,-232.91015625,-417.48046875,159.66796875,-8.30078125,NaN
1731719178908.5625,-286.1328125,-586.9140625,69.3359375,-170.41015625,NaN
1731719178912.4688,52.734375,544.43359375,829.58984375,-129.39453125,NaN
1731719178916.375,200.68359375,886.71875,961.9140625,62.01171875,NaN
1731719178920.2812,-123.53515625,-230.95703125,193.84765625,55.17578125,NaN
1731719178924.1875,-308.10546875,-1000,-345.703125,-126.46484375,NaN
1731719178928.0938,-68.84765625,0,415.52734375,-190.4296875,NaN
1731719178932,191.40625,999.51171875,999.51171875,15.625,NaN
1731719178935.9062,6.34765625,-90.8203125,379.39453125,98.14453125,NaN
1731719178939.8125,-278.80859375,-1000,-822.75390625,-46.875,NaN
1731719178943.7188,-157.2265625,-584.47265625,-532.2265625,-189.94140625,NaN
1731719178947.625,119.62890625,828.61328125,938.96484375,-103.02734375,NaN
1731719178951.5312,80.078125,441.40625,648.92578125,98.14453125,NaN
1731719178955.4375,-290.0390625,-864.2578125,-327.1484375,-77.63671875,NaN
1731719178959.3438,-277.83203125,-340.8203125,157.2265625,-217.28515625,NaN
1731719178963.25,114.74609375,865.234375,999.51171875,-70.3125,NaN
1731719178967.1562,162.59765625,553.22265625,713.8671875,106.4453125,NaN
1731719178971.0625,-196.77734375,-828.61328125,-301.7578125,40.52734375,NaN
1731719178974.9688,-334.9609375,-608.3984375,-123.046875,-191.40625,NaN
1731719178978.875,16.6015625,816.89453125,933.59375,-147.4609375,NaN
1731719178982.7812,280.76171875,704.1015625,848.14453125,144.04296875,NaN
1731719178986.6875,-31.73828125,-830.56640625,-247.55859375,137.6953125,NaN
1731719178990.5938,-391.11328125,-772.94921875,-120.1171875,-179.19921875,NaN
1731719178994.5,-144.04296875,696.77734375,916.50390625,-225.5859375,NaN
1731719178998.4062,258.30078125,696.2890625,828.61328125,81.0546875,NaN
1731719179002.3125,62.01171875,-557.12890625,-5.859375,156.25,NaN
1731719179006.2188,-343.75,-797.36328125,-197.265625,-115.72265625,NaN
1731719179010.125,-196.2890625,156.25,464.84375,-202.63671875,NaN
1731719179014.0312,190.91796875,988.76953125,999.51171875,-21.97265625,NaN
1731719179017.9375,118.1640625,464.35546875,761.71875,96.19140625,NaN
1731719179021.8438,-277.83203125,-430.17578125,71.2890625,-70.80078125,NaN
1731719179025.75,-249.0234375,-164.0625,279.78515625,-196.2890625,NaN
1731719179029.6562,160.64453125,441.89453125,845.21484375,-54.6875,NaN
1731719179033.5625,182.6171875,161.62109375,611.328125,63.96484375,NaN
1731719179037.4688,-216.796875,-625.9765625,-122.0703125,-15.13671875,NaN
1731719179041.375,-350.09765625,-791.015625,-260.25390625,-184.08203125,NaN
1731719179045.2812,24.90234375,-461.42578125,138.671875,-104.00390625,NaN
1731719179049.1875,204.58984375,-125.9765625,407.71484375,53.22265625,NaN
1731719179053.0938,-134.27734375,-76.66015625,341.796875,-9.27734375,NaN
1731719179057,-337.40234375,-700.1953125,-122.0703125,-125.48828125,NaN
1731719179060.9062,-105.46875,31.25,447.265625,-168.9453125,NaN
1731719179064.8125,181.640625,999.51171875,999.51171875,-20.5078125,NaN
1731719179068.7188,4.8828125,530.76171875,703.125,76.171875,NaN
1731719179072.625,-313.4765625,-668.45703125,-143.5546875,-42.96875,NaN
1731719179076.5312,-193.359375,-552.734375,3.41796875,-142.578125,NaN
1731719179080.4375,150.87890625,613.76953125,886.71875,-55.6640625,NaN
1731719179084.3438,85.44921875,588.37890625,906.73828125,56.640625,NaN
1731719179088.25,-247.0703125,-652.83203125,-265.13671875,8.7890625,NaN
1731719179092.1562,-268.5546875,-804.6875,-621.58203125,-142.08984375,NaN
1731719179096.0625,47.36328125,514.16015625,669.921875,-119.62890625,NaN
1731719179099.9688,177.24609375,583.0078125,920.41015625,58.10546875,NaN
1731719179103.875,-128.90625,-696.77734375,-382.8125,42.96875,NaN
1731719179107.7812,-348.6328125,-732.421875,-506.34765625,-163.57421875,NaN
1731719179111.6875,-78.61328125,594.23828125,787.109375,-183.59375,NaN
1731719179115.5938,189.453125,999.51171875,999.51171875,10.25390625,NaN
1731719179119.5,-46.38671875,-127.9296875,267.08984375,47.36328125,NaN
1731719179123.4062,-308.10546875,-1000,-610.3515625,-102.5390625,NaN
1731719179127.3125,-158.69140625,-366.69921875,50.29296875,-218.26171875,NaN
1731719179131.2188,145.99609375,888.671875,999.51171875,-66.40625,NaN
1731719179135.125,60.546875,-61.5234375,144.53125,115.72265625,NaN
1731719179139.0312,-325.1953125,-1000,-843.75,-71.77734375,NaN
1731719179142.9375,-291.9921875,-190.4296875,210.44921875,-249.0234375,NaN
1731719179146.8438,138.18359375,788.0859375,999.51171875,-63.96484375,NaN
1731719179150.75,137.6953125,262.6953125,579.1015625,93.75,NaN
1731719179154.6562,-275.87890625,-796.38671875,-243.1640625,-26.85546875,NaN
1731719179158.5625,-347.16796875,-435.546875,109.86328125,-200.68359375,NaN
1731719179162.4688,67.3828125,737.3046875,965.33203125,-124.51171875,NaN
1731719179166.375,226.07421875,386.71875,750,99.12109375,NaN
1731719179170.2812,-133.7890625,-735.3515625,-238.28125,49.31640625,NaN
1731719179174.1875,-377.9296875,-796.875,-428.7109375,-188.4765625,NaN
1731719179178.0938,-40.52734375,10.25390625,438.96484375,-150.87890625,NaN
1731719179182,245.60546875,118.65234375,604.4921875,67.87109375,NaN
1731719179185.9062,-62.5,-213.37890625,270.99609375,39.55078125,NaN
1731719179189.8125,-320.80078125,-671.875,-165.0390625,-121.58203125,NaN
1731719179193.7188,-145.01953125,-134.765625,332.51953125,-192.3828125,NaN
1731719179197.625,183.10546875,878.41796875,999.51171875,-38.57421875,NaN
1731719179201.5312,71.77734375,472.65625,669.43359375,71.2890625,NaN
1731719179205.4375,-283.69140625,-680.17578125,-174.8046875,-48.828125,NaN
1731719179209.3438,-253.41796875,-528.80859375,-18.5546875,-209.47265625,NaN
1731719179213.25,101.07421875,552.734375,893.06640625,-120.60546875,NaN
1731719179217.1562,154.78515625,268.06640625,658.203125,82.03125,NaN
1731719179221.0625,-208.0078125,-754.8828125,-176.26953125,-10.7421875,NaN
1731719179224.9688,-260.25390625,-1000,-675.78125,-111.81640625,NaN
1731719179228.875,34.1796875,-370.1171875,-15.625,-110.3515625,NaN
1731719179232.7812,119.62890625,794.43359375,999.51171875,-19.53125,NaN
1731719179236.6875,-104.4921875,-160.64453125,237.79296875,52.24609375,NaN
1731719179240.5938,-330.078125,-895.99609375,-381.34765625,-140.13671875,NaN
1731719179244.5,-110.3515625,163.0859375,474.12109375,-201.171875,NaN
1731719179248.4062,184.08203125,999.51171875,999.51171875,-5.859375,NaN
1731719179252.3125,10.7421875,100.5859375,399.4140625,88.8671875,NaN
1731719179256.2188,-308.59375,-936.5234375,-395.01953125,-95.21484375,NaN
1731719179260.125,-186.03515625,-40.0390625,337.890625,-194.82421875,NaN
1731719179264.0312,188.96484375,656.73828125,999.51171875,-26.85546875,NaN
1731719179267.9375,131.34765625,-254.8828125,155.2734375,129.8828125,NaN
1731719179271.8438,-228.02734375,-1000,-1000,30.76171875,NaN
1731719179275.75,-305.6640625,-443.359375,-245.1171875,-245.60546875,NaN
1731719179279.6562,72.265625,915.52734375,999.51171875,-149.4140625,NaN
1731719179283.5625,208.0078125,532.2265625,696.2890625,97.65625,NaN
1731719179287.4688,-162.109375,-783.69140625,-251.953125,18.5546875,NaN
1731719179291.375,-359.375,-571.77734375,-67.3828125,-194.3359375,NaN
1731719179295.2812,-34.1796875,666.9921875,841.30859375,-132.32421875,NaN
