time,TP9,AF7,AF8,TP10,AUX
1731719370226.625,-153.3203125,625.9765625,-843.75,-104.00390625,NaN
1731719370230.5312,-125.9765625,637.6953125,-937.01171875,-132.32421875,NaN
1731719370234.4375,-47.36328125,590.33203125,-933.59375,-86.9140625,NaN
1731719370238.3438,-64.94140625,544.921875,-939.453125,-32.71484375,NaN
1731719370242.25,-146.97265625,514.6484375,-981.93359375,-73.73046875,NaN
1731719370246.1562,-132.8125,443.84765625,-988.28125,-124.0234375,NaN
1731719370250.0625,-64.453125,427.24609375,-1000,-96.6796875,NaN
1731719370253.9688,-49.8046875,262.20703125,-1000,-36.1328125,NaN
1731719370257.875,-101.5625,642.578125,-792.48046875,-39.55078125,NaN
1731719370261.7812,-130.37109375,876.953125,-758.30078125,-91.796875,NaN
1731719370265.6875,-58.59375,575.68359375,-987.79296875,-80.078125,NaN
1731719370269.5938,-11.23046875,576.171875,-924.8046875,-14.6484375,NaN
1731719370273.5,-85.9375,844.23828125,-490.72265625,-32.71484375,NaN
1731719370277.4062,-122.0703125,662.109375,-692.3828125,-80.56640625,NaN
1731719370281.3125,-42.48046875,496.09375,-1000,-47.8515625,NaN
1731719370285.2188,17.578125,754.39453125,-659.66796875,10.7421875,NaN
1731719370289.125,-38.57421875,752.9296875,-393.5546875,-16.11328125,NaN
1731719370293.0312,-109.86328125,500.48828125,-844.7265625,-87.40234375,NaN
1731719370296.9375,-58.59375,261.23046875,-1000,-86.9140625,NaN
1731719370300.8438,16.11328125,303.22265625,-985.3515625,-41.50390625,NaN
1731719370304.75,-25.87890625,821.2890625,-748.53515625,-35.15625,NaN
1731719370308.6562,-99.609375,849.609375,-522.4609375,-52.734375,NaN
1731719370312.5625,-68.84765625,454.58984375,-853.02734375,-43.45703125,NaN
1731719370316.4688,-2.44140625,597.16796875,-874.51171875,-40.0390625,NaN
1731719370320.375,-25.390625,910.64453125,-403.80859375,-38.57421875,NaN
1731719370324.2812,-86.9140625,826.66015625,-287.109375,-38.57421875,NaN
1731719370328.1875,-91.796875,588.8671875,-747.0703125,-70.3125,NaN
1731719370332.0938,-37.109375,569.3359375,-954.58984375,-67.87109375,NaN
1731719370336,3.90625,767.578125,-704.58984375,-20.99609375,NaN
1731719370339.9062,-45.8984375,544.43359375,-853.02734375,-12.6953125,NaN
1731719370343.8125,-97.16796875,119.62890625,-1000,-30.2734375,NaN
1731719370347.7188,-39.0625,601.5625,-1000,-41.50390625,NaN
1731719370351.625,28.3203125,999.51171875,-828.125,-17.578125,NaN
1731719370355.5312,-22.4609375,878.90625,-714.84375,9.765625,NaN
1731719370359.4375,-89.84375,816.89453125,-935.05859375,-24.4140625,NaN
1731719370363.3438,-63.4765625,958.0078125,-1000,-61.03515625,NaN
1731719370367.25,5.37109375,984.375,-973.6328125,-49.31640625,NaN
1731719370371.1562,1.953125,935.546875,-919.43359375,-12.6953125,NaN
1731719370375.0625,-71.77734375,938.96484375,-888.671875,-9.765625,NaN
1731719370378.9688,-71.77734375,973.14453125,-976.07421875,-51.26953125,NaN
1731719370382.875,-5.859375,976.5625,-991.2109375,-47.36328125,NaN
1731719370386.7812,15.13671875,926.7578125,-954.1015625,0,NaN
1731719370390.6875,-48.33984375,923.33984375,-979.98046875,-16.6015625,NaN
1731719370394.5938,-75.68359375,981.4453125,-985.3515625,-57.6171875,NaN
1731719370398.5,-18.06640625,973.14453125,-998.53515625,-44.921875,NaN
1731719370402.4062,14.16015625,843.26171875,-1000,-9.765625,NaN
1731719370406.3125,-67.3828125,886.71875,-794.921875,-32.2265625,NaN
1731719370410.2188,-125.9765625,999.51171875,-749.51171875,-82.51953125,NaN
1731719370414.125,-58.10546875,918.9453125,-991.2109375,-80.56640625,NaN
1731719370418.0312,1.953125,751.953125,-1000,-32.2265625,NaN
1731719370421.9375,-39.0625,896.484375,-743.65234375,-22.94921875,NaN
1731719370425.8438,-102.05078125,999.51171875,-656.25,-45.8984375,NaN
1731719370429.75,-88.8671875,862.3046875,-955.078125,-66.40625,NaN
1731719370433.6562,-22.4609375,723.6328125,-1000,-56.15234375,NaN
1731719370437.5625,-9.27734375,898.92578125,-843.75,-15.13671875,NaN
1731719370441.4688,-69.82421875,999.51171875,-770.01953125,-24.4140625,NaN
1731719370445.375,-64.94140625,841.30859375,-964.35546875,-46.38671875,NaN
1731719370449.2812,-12.20703125,470.21484375,-1000,-14.6484375,NaN
1731719370453.1875,-7.8125,854.00390625,-637.20703125,4.8828125,NaN
1731719370457.0938,-64.94140625,999.51171875,-428.7109375,-52.734375,NaN
1731719370461,-107.421875,807.6171875,-837.890625,-88.8671875,NaN
1731719370464.9062,-37.109375,835.9375,-1000,-62.01171875,NaN
1731719370468.8125,20.5078125,970.21484375,-949.70703125,-18.5546875,NaN
1731719370472.7188,-40.0390625,967.7734375,-889.16015625,-9.27734375,NaN
1731719370476.625,-109.375,820.80078125,-942.87109375,-51.7578125,NaN
1731719370480.5312,-64.453125,710.44921875,-1000,-75.1953125,NaN
1731719370484.4375,0.48828125,927.24609375,-874.0234375,-29.296875,NaN
1731719370488.3438,-44.921875,999.51171875,-424.31640625,-12.6953125,NaN
1731719370492.25,-119.62890625,750.9765625,-742.67578125,-72.265625,NaN
1731719370496.1562,-97.65625,742.1875,-1000,-101.5625,NaN
1731719370500.0625,-31.25,999.51171875,-951.66015625,-86.9140625,NaN
1731719370503.9688,-32.71484375,957.03125,-756.34765625,-49.8046875,NaN
1731719370507.875,-96.19140625,923.33984375,-784.66796875,-39.0625,NaN
1731719370511.7812,-113.76953125,957.03125,-901.85546875,-81.54296875,NaN
1731719370515.6875,-50.29296875,978.02734375,-841.796875,-88.8671875,NaN
1731719370519.5938,-18.06640625,953.125,-683.10546875,-40.52734375,NaN
1731719370523.5,-71.2890625,881.8359375,-910.15625,-24.4140625,NaN
1731719370527.4062,-97.16796875,832.51953125,-1000,-57.6171875,NaN
1731719370531.3125,-50.78125,963.37890625,-987.3046875,-61.5234375,NaN
1731719370535.2188,5.859375,949.21875,-959.9609375,-17.08984375,NaN
1731719370539.125,-28.3203125,477.5390625,-974.12109375,-7.8125,NaN
1731719370543.0312,-115.234375,726.07421875,-968.26171875,-59.08203125,NaN
1731719370546.9375,-97.16796875,999.51171875,-878.41796875,-101.07421875,NaN
1731719370550.8438,-17.08984375,941.40625,-870.60546875,-83.0078125,NaN
1731719370554.75,-15.625,972.16796875,-605.95703125,-34.66796875,NaN
1731719370558.6562,-90.8203125,968.26171875,-538.57421875,-49.8046875,NaN
1731719370562.5625,-112.79296875,970.703125,-895.01953125,-101.5625,NaN
1731719370566.4688,-36.1328125,961.42578125,-945.3125,-87.890625,NaN
1731719370570.375,-19.04296875,960.44921875,-850.09765625,-43.45703125,NaN
1731719370574.2812,-102.05078125,970.21484375,-950.1953125,-49.31640625,NaN
1731719370578.1875,-125.48828125,973.14453125,-1000,-92.28515625,NaN
1731719370582.0938,-43.45703125,933.59375,-979.4921875,-79.58984375,NaN
1731719370586,-2.9296875,938.96484375,-912.59765625,-33.69140625,NaN
1731719370589.9062,-81.54296875,970.703125,-755.37109375,-48.33984375,NaN
1731719370593.8125,-142.578125,999.51171875,-633.30078125,-92.7734375,NaN
1731719370597.7188,-77.1484375,717.7734375,-949.70703125,-79.58984375,NaN
1731719370601.625,-30.2734375,718.26171875,-959.9609375,-46.875,NaN
1731719370605.5312,-57.6171875,999.51171875,-552.734375,-30.76171875,NaN
1731719370609.4375,-91.30859375,956.54296875,-716.30859375,-27.83203125,NaN
1731719370613.3438,-95.703125,955.078125,-1000,-68.84765625,NaN
1731719370617.25,-22.94921875,954.58984375,-905.2734375,-62.98828125,NaN
1731719370621.1562,-15.13671875,991.2109375,-791.015625,-2.9296875,NaN
1731719370625.0625,-106.4453125,944.82421875,-933.59375,-26.85546875,NaN
1731719370628.9688,-116.2109375,646.97265625,-1000,-73.73046875,NaN
1731719370632.875,-44.921875,846.19140625,-932.6171875,-73.2421875,NaN
1731719370636.7812,-22.4609375,999.51171875,-391.11328125,-25.390625,NaN
1731719370640.6875,-79.58984375,946.2890625,-372.0703125,-42.96875,NaN
1731719370644.5938,-102.05078125,973.14453125,-939.94140625,-98.6328125,NaN
1731719370648.5,-35.64453125,960.44921875,-908.69140625,-74.21875,NaN
1731719370652.4062,13.18359375,991.2109375,-575.68359375,-32.2265625,NaN
1731719370656.3125,-30.76171875,900.87890625,-692.87109375,-23.4375,NaN
1731719370660.2188,-103.02734375,853.02734375,-996.09375,-59.08203125,NaN
1731719370664.125,-76.171875,959.47265625,-985.3515625,-97.65625,NaN
1731719370668.0312,-11.71875,999.51171875,-981.4453125,-74.70703125,NaN
1731719370671.9375,-34.66796875,810.05859375,-971.19140625,-27.83203125,NaN
1731719370675.8438,-110.83984375,701.66015625,-950.1953125,-61.5234375,NaN
1731719370679.75,-105.95703125,983.3984375,-890.13671875,-95.21484375,NaN
1731719370683.6562,-26.85546875,972.65625,-759.27734375,-55.17578125,NaN
1731719370687.5625,-31.73828125,926.7578125,-728.515625,-40.52734375,NaN
1731719370691.4688,-125,943.359375,-763.671875,-84.47265625,NaN
1731719370695.375,-135.7421875,995.60546875,-918.45703125,-97.16796875,NaN
1731719370699.2812,-48.33984375,925.29296875,-992.1875,-69.3359375,NaN
1731719370703.1875,-11.23046875,702.63671875,-942.87109375,-27.34375,NaN
1731719370707.0938,-83.49609375,886.71875,-756.8359375,-41.9921875,NaN
1731719370711,-115.234375,864.2578125,-886.71875,-80.078125,NaN
1731719370714.9062,-43.45703125,547.36328125,-1000,-53.22265625,NaN
1731719370718.8125,11.23046875,70.80078125,-1000,-19.53125,NaN
1731719370722.7188,-45.8984375,532.71484375,-820.80078125,-34.66796875,NaN
1731719370726.625,-103.02734375,999.51171875,-680.17578125,-59.5703125,NaN
1731719370730.5312,-46.875,839.35546875,-955.56640625,-55.17578125,NaN
1731719370734.4375,8.7890625,761.23046875,-999.51171875,-38.0859375,NaN
1731719370738.3438,-15.625,948.2421875,-637.6953125,-21.97265625,NaN
1731719370742.25,-82.51953125,999.51171875,-589.84375,-39.0625,NaN
1731719370746.1562,-91.796875,714.35546875,-941.89453125,-77.1484375,NaN
1731719370750.0625,-15.13671875,721.6796875,-908.203125,-57.6171875,NaN
1731719370753.9688,-5.859375,944.3359375,-550.29296875,-15.13671875,NaN
1731719370757.875,-94.23828125,861.81640625,-670.41015625,-29.78515625,NaN
1731719370761.7812,-124.51171875,118.65234375,-992.1875,-88.8671875,NaN
1731719370765.6875,-58.59375,-392.578125,-1000,-102.5390625,NaN
1731719370769.5938,-33.203125,696.77734375,-669.921875,-62.5,NaN
1731719370773.5,-97.65625,999.51171875,-426.7578125,-57.6171875,NaN
1731719370777.4062,-132.32421875,326.66015625,-846.6796875,-89.35546875,NaN
1731719370781.3125,-67.3828125,354.00390625,-1000,-97.16796875,NaN
1731719370785.2188,-33.203125,815.91796875,-597.16796875,-80.56640625,NaN
1731719370789.125,-88.37890625,743.1640625,-442.3828125,-61.5234375,NaN
1731719370793.0312,-134.27734375,225.5859375,-840.8203125,-67.87109375,NaN
1731719370796.9375,-88.37890625,43.9453125,-1000,-85.44921875,NaN
1731719370800.8438,-26.85546875,327.63671875,-906.73828125,-59.08203125,NaN
1731719370804.75,-47.8515625,314.453125,-787.109375,-26.85546875,NaN
1731719370808.6562,-102.05078125,-285.64453125,-952.1484375,-48.828125,NaN
1731719370812.5625,-114.2578125,-355.46875,-1000,-103.02734375,NaN
1731719370816.4688,-54.19921875,-6.34765625,-974.12109375,-108.88671875,NaN
1731719370820.375,-40.0390625,78.125,-882.32421875,-56.15234375,NaN
1731719370824.2812,-99.609375,-636.23046875,-950.1953125,-30.2734375,NaN
1731719370828.1875,-119.140625,-458.0078125,-1000,-61.03515625,NaN
1731719370832.0938,-52.24609375,199.21875,-932.6171875,-63.4765625,NaN
1731719370836,-7.8125,227.5390625,-737.3046875,-31.25,NaN
1731719370839.9062,-65.4296875,223.14453125,-659.1796875,-46.38671875,NaN
1731719370843.8125,-112.3046875,223.14453125,-664.0625,-85.44921875,NaN
1731719370847.7188,-54.19921875,-38.0859375,-918.9453125,-84.47265625,NaN
1731719370851.625,9.27734375,-260.7421875,-1000,-48.828125,NaN
1731719370855.5312,-37.109375,-527.34375,-986.81640625,-42.48046875,NaN
1731719370859.4375,-122.55859375,-430.17578125,-1000,-76.66015625,NaN
1731719370863.3438,-104.98046875,-200.1953125,-1000,-91.30859375,NaN
1731719370867.25,-24.4140625,-505.859375,-995.60546875,-49.8046875,NaN
1731719370871.1562,-40.0390625,-642.578125,-943.359375,-16.11328125,NaN
1731719370875.0625,-132.32421875,-237.79296875,-918.9453125,-70.80078125,NaN
1731719370878.9688,-127.44140625,-74.21875,-924.31640625,-97.16796875,NaN
1731719370882.875,-40.52734375,-518.5546875,-970.21484375,-63.4765625,NaN
1731719370886.7812,-34.1796875,-111.328125,-569.3359375,-55.17578125,NaN
1731719370890.6875,-104.4921875,337.890625,-383.7890625,-71.2890625,NaN
1731719370894.5938,-115.72265625,-145.5078125,-778.3203125,-84.47265625,NaN
1731719370898.5,-43.9453125,-467.28515625,-983.88671875,-81.0546875,NaN
1731719370902.4062,-9.27734375,-452.63671875,-974.609375,-44.921875,NaN
1731719370906.3125,-51.26953125,-243.65234375,-840.33203125,-27.34375,NaN
1731719370910.2188,-84.47265625,-358.88671875,-876.953125,-46.875,NaN
1731719370914.125,-63.4765625,-876.953125,-1000,-86.42578125,NaN
1731719370918.0312,-26.3671875,-237.3046875,-690.4296875,-88.37890625,NaN
1731719370921.9375,-44.921875,51.7578125,-622.0703125,-32.2265625,NaN
1731719370925.8438,-107.91015625,-334.47265625,-858.3984375,-48.828125,NaN
1731719370929.75,-110.3515625,-623.53515625,-1000,-115.234375,NaN
1731719370933.6562,-39.55078125,-445.3125,-973.6328125,-90.8203125,NaN
1731719370937.5625,-23.4375,48.828125,-585.44921875,-22.4609375,NaN
1731719370941.4688,-93.26171875,-292.48046875,-708.0078125,-25.390625,NaN
1731719370945.375,-101.07421875,-858.3984375,-1000,-97.16796875,NaN
1731719370949.2812,-23.4375,-876.953125,-994.62890625,-82.51953125,NaN
1731719370953.1875,-11.23046875,-613.76953125,-984.86328125,-28.80859375,NaN
1731719370957.0938,-97.16796875,-685.546875,-1000,-55.17578125,NaN
1731719370961,-138.671875,-761.23046875,-991.2109375,-93.26171875,NaN
1731719370964.9062,-67.3828125,-136.23046875,-753.41796875,-79.58984375,NaN
1731719370968.8125,-24.4140625,-31.25,-640.625,-34.66796875,NaN
1731719370972.7188,-67.87109375,-363.28125,-786.62109375,-18.5546875,NaN
1731719370976.625,-109.86328125,-270.5078125,-737.79296875,-65.91796875,NaN
1731719370980.5312,-89.35546875,-220.21484375,-821.77734375,-98.6328125,NaN
1731719370984.4375,-35.15625,-277.34375,-770.01953125,-73.73046875,NaN
1731719370988.3438,-41.015625,-616.69921875,-849.609375,-50.78125,NaN
1731719370992.25,-99.12109375,-542.96875,-895.5078125,-60.05859375,NaN
1731719370996.1562,-92.28515625,-641.11328125,-953.61328125,-75.68359375,NaN
1731719371000.0625,-20.5078125,-774.4140625,-1000,-63.96484375,NaN
1731719371003.9688,-11.23046875,-916.9921875,-1000,-25.87890625,NaN
1731719371007.875,-84.47265625,-718.75,-961.9140625,-64.453125,NaN
1731719371011.7812,-100.09765625,-192.3828125,-799.8046875,-113.28125,NaN
1731719371015.6875,-28.80859375,-253.90625,-850.5859375,-75.1953125,NaN
1731719371019.5938,11.71875,-239.2578125,-743.1640625,-12.20703125,NaN
1731719371023.5,-51.7578125,-116.69921875,-592.28515625,-7.32421875,NaN
1731719371027.4062,-98.6328125,-227.05078125,-769.53125,-61.5234375,NaN
1731719371031.3125,-41.015625,-605.46875,-995.60546875,-67.87109375,NaN
1731719371035.2188,-0.48828125,-484.86328125,-821.2890625,-28.80859375,NaN
1731719371039.125,-55.17578125,-72.265625,-553.22265625,-34.66796875,NaN
1731719371043.0312,-109.86328125,-396.97265625,-835.44921875,-86.42578125,NaN
1731719371046.9375,-61.5234375,-897.4609375,-1000,-78.61328125,NaN
1731719371050.8438,1.46484375,-963.8671875,-990.72265625,-34.66796875,NaN
1731719371054.75,-25.87890625,-183.10546875,-641.6015625,-27.34375,NaN
1731719371058.6562,-92.28515625,22.94921875,-564.94140625,-39.0625,NaN
1731719371062.5625,-68.84765625,-560.05859375,-949.70703125,-49.8046875,NaN
1731719371066.4688,13.671875,-393.06640625,-923.33984375,-29.78515625,NaN
1731719371070.375,13.671875,-6.8359375,-685.546875,-19.04296875,NaN
1731719371074.2812,-48.33984375,-173.828125,-690.91796875,-27.83203125,NaN
1731719371078.1875,-61.03515625,-667.48046875,-949.70703125,-33.69140625,NaN
1731719371082.0938,5.37109375,-458.984375,-986.328125,-36.1328125,NaN
1731719371086,48.828125,-275.390625,-903.3203125,3.90625,NaN
1731719371089.9062,-12.20703125,-761.23046875,-985.3515625,23.92578125,NaN
1731719371093.8125,-59.5703125,-1000,-1000,-12.20703125,NaN
1731719371097.7188,-12.20703125,-621.09375,-1000,-37.109375,NaN
1731719371101.625,46.38671875,-271.484375,-967.28515625,-17.08984375,NaN
1731719371105.5312,5.859375,-326.66015625,-810.05859375,18.5546875,NaN
1731719371109.4375,-81.54296875,-660.15625,-929.19921875,-15.13671875,NaN
1731719371113.3438,-59.5703125,-365.72265625,-1000,-49.31640625,NaN
1731719371117.25,25.87890625,-38.0859375,-866.2109375,-19.53125,NaN
1731719371121.1562,2.44140625,-244.140625,-856.93359375,-8.7890625,NaN
1731719371125.0625,-93.75,-268.06640625,-861.81640625,-55.17578125,NaN
1731719371128.9688,-105.46875,-109.86328125,-864.74609375,-91.796875,NaN
1731719371132.875,-34.66796875,-187.01171875,-970.21484375,-74.21875,NaN
1731719371136.7812,-21.97265625,-520.01953125,-982.91015625,-15.13671875,NaN
1731719371140.6875,-80.56640625,-621.09375,-932.6171875,-2.9296875,NaN
1731719371144.5938,-106.4453125,-88.37890625,-844.7265625,-60.546875,NaN
1731719371148.5,-39.0625,58.10546875,-850.09765625,-81.0546875,NaN
1731719371152.4062,5.859375,-257.32421875,-910.64453125,-50.29296875,NaN
1731719371156.3125,-60.546875,-187.98828125,-824.21875,-34.66796875,NaN
1731719371160.2188,-117.67578125,-145.5078125,-890.625,-74.70703125,NaN
1731719371164.125,-61.5234375,-139.6484375,-958.0078125,-98.6328125,NaN
1731719371168.0312,4.39453125,-467.28515625,-953.125,-52.734375,NaN
1731719371171.9375,-28.3203125,-149.4140625,-706.0546875,-16.6015625,NaN
1731719371175.8438,-90.33203125,291.50390625,-684.08203125,-42.48046875,NaN
1731719371179.75,-80.56640625,-156.73828125,-960.9375,-76.66015625,NaN
1731719371183.6562,-15.13671875,-724.609375,-1000,-62.5,NaN
1731719371187.5625,-13.18359375,-281.25,-882.8125,-0.9765625,NaN
1731719371191.4688,-80.078125,380.859375,-658.203125,-1.46484375,NaN
1731719371195.375,-91.796875,-146.97265625,-916.015625,-50.29296875,NaN
1731719371199.2812,-14.6484375,-774.90234375,-1000,-38.0859375,NaN
1731719371203.1875,6.34765625,93.75,-640.625,3.90625,NaN
1731719371207.0938,-65.91796875,595.703125,-451.66015625,-13.18359375,NaN
1731719371211,-113.28125,155.76171875,-787.109375,-89.35546875,NaN
1731719371214.9062,-58.59375,-164.0625,-1000,-92.7734375,NaN
1731719371218.8125,-1.953125,149.4140625,-788.0859375,-35.64453125,NaN
1731719371222.7188,-56.640625,575.68359375,-503.41796875,-19.53125,NaN
1731719371226.625,-119.62890625,19.04296875,-859.86328125,-46.38671875,NaN
1731719371230.5312,-69.82421875,-629.8828125,-1000,-53.22265625,NaN
1731719371234.4375,-6.8359375,-250,-946.2890625,-21.97265625,NaN
1731719371238.3438,-48.828125,380.37109375,-754.8828125,-25.390625,NaN
1731719371242.25,-131.34765625,-126.953125,-887.6953125,-69.3359375,NaN
1731719371246.1562,-117.1875,-291.015625,-840.33203125,-108.88671875,NaN
1731719371250.0625,-33.69140625,660.15625,-419.43359375,-83.984375,NaN
1731719371253.9688,-22.94921875,913.57421875,-208.49609375,-24.4140625,NaN
1731719371257.875,-86.42578125,625.9765625,-378.90625,-44.43359375,NaN
1731719371261.7812,-94.7265625,556.15234375,-563.96484375,-89.84375,NaN
1731719371265.6875,-19.53125,660.15625,-534.66796875,-72.75390625,NaN
1731719371269.5938,5.859375,720.21484375,-386.71875,-22.4609375,NaN
1731719371273.5,-52.734375,175.29296875,-750.9765625,-27.34375,NaN
1731719371277.4062,-98.6328125,-258.7890625,-1000,-68.359375,NaN
1731719371281.3125,-61.5234375,183.10546875,-855.95703125,-86.9140625,NaN
1731719371285.2188,-13.18359375,509.27734375,-637.6953125,-42.96875,NaN
1731719371289.125,-40.52734375,-444.3359375,-910.15625,20.5078125,NaN
1731719371293.0312,-113.76953125,-270.99609375,-852.05078125,-29.296875,NaN
1731719371296.9375,-96.19140625,649.4140625,-583.984375,-79.58984375,NaN
1731719371300.8438,-19.53125,494.140625,-681.15234375,-53.22265625,NaN
1731719371304.75,-32.71484375,507.8125,-565.4296875,-45.8984375,NaN
1731719371308.6562,-99.609375,729.00390625,-369.62890625,-62.98828125,NaN
1731719371312.5625,-91.796875,516.6015625,-679.6875,-80.078125,NaN
1731719371316.4688,-22.94921875,226.07421875,-921.38671875,-56.640625,NaN
1731719371320.375,-16.11328125,314.453125,-756.8359375,-33.69140625,NaN
1731719371324.2812,-87.40234375,113.28125,-855.95703125,-30.2734375,NaN
1731719371328.1875,-111.328125,-63.96484375,-1000,-62.5,NaN
1731719371332.0938,-52.734375,-381.8359375,-1000,-80.078125,NaN
1731719371336,-28.3203125,-835.9375,-971.6796875,-41.015625,NaN
1731719371339.9062,-83.49609375,319.82421875,-588.8671875,-48.828125,NaN
1731719371343.8125,-129.8828125,483.88671875,-700.1953125,-95.703125,NaN
1731719371347.7188,-83.49609375,-334.9609375,-1000,-118.1640625,NaN
1731719371351.625,-20.01953125,93.75,-946.2890625,-73.2421875,NaN
1731719371355.5312,-53.22265625,533.203125,-785.15625,-38.0859375,NaN
1731719371359.4375,-119.62890625,99.609375,-941.40625,-87.890625,NaN
1731719371363.3438,-89.84375,-251.46484375,-1000,-103.02734375,NaN
1731719371367.25,-11.23046875,65.4296875,-988.76953125,-53.22265625,NaN
1731719371371.1562,-19.04296875,171.38671875,-1000,-17.08984375,NaN
1731719371375.0625,-92.28515625,-91.30859375,-994.62890625,-44.921875,NaN
1731719371378.9688,-83.49609375,-775.87890625,-1000,-55.17578125,NaN
1731719371382.875,-6.8359375,-313.4765625,-984.86328125,-39.0625,NaN
1731719371386.7812,-18.5546875,406.25,-905.76171875,-27.83203125,NaN
1731719371390.6875,-84.9609375,-4.39453125,-961.42578125,-38.57421875,NaN
1731719371394.5938,-95.703125,-337.40234375,-1000,-59.5703125,NaN
1731719371398.5,-47.36328125,133.7890625,-1000,-70.3125,NaN
1731719371402.4062,-19.53125,736.81640625,-614.2578125,-54.6875,NaN
1731719371406.3125,-69.3359375,532.2265625,-615.234375,-33.69140625,NaN
1731719371410.2188,-112.79296875,238.76953125,-977.05078125,-77.1484375,NaN
1731719371414.125,-75.68359375,338.37890625,-974.12109375,-97.16796875,NaN
1731719371418.0312,-4.39453125,238.76953125,-987.3046875,-36.62109375,NaN
1731719371421.9375,-44.921875,-162.59765625,-1000,-18.5546875,NaN
1731719371425.8438,-125.9765625,-353.02734375,-973.14453125,-71.77734375,NaN
1731719371429.75,-79.1015625,292.48046875,-932.6171875,-77.63671875,NaN
1731719371433.6562,-9.765625,500.48828125,-892.578125,-65.91796875,NaN
1731719371437.5625,-23.92578125,336.9140625,-840.8203125,-64.94140625,NaN
1731719371441.4688,-82.51953125,327.63671875,-839.84375,-61.03515625,NaN
1731719371445.375,-100.5859375,80.078125,-947.75390625,-82.51953125,NaN
1731719371449.2812,-43.9453125,-21.484375,-1000,-96.19140625,NaN
1731719371453.1875,-4.8828125,-129.39453125,-974.12109375,-43.45703125,NaN
1731719371457.0938,-62.5,243.65234375,-722.65625,-34.1796875,NaN
1731719371461,-108.3984375,529.78515625,-781.73828125,-72.265625,NaN
1731719371464.9062,-54.6875,-1.46484375,-1000,-70.80078125,NaN
1731719371468.8125,3.90625,-586.9140625,-982.91015625,-37.109375,NaN
1731719371472.7188,-51.26953125,21.97265625,-765.13671875,-30.2734375,NaN
1731719371476.625,-123.53515625,499.0234375,-850.09765625,-73.2421875,NaN
1731719371480.5312,-78.125,121.58203125,-1000,-100.5859375,NaN
1731719371484.4375,-24.4140625,151.85546875,-918.45703125,-74.70703125,NaN
1731719371488.3438,-55.17578125,500.9765625,-730.95703125,-58.10546875,NaN
1731719371492.25,-96.6796875,578.61328125,-686.03515625,-58.10546875,NaN
1731719371496.1562,-93.26171875,268.06640625,-913.0859375,-87.40234375,NaN
1731719371500.0625,-54.6875,108.3984375,-1000,-99.609375,NaN
1731719371503.9688,-42.48046875,209.47265625,-897.4609375,-52.24609375,NaN
1731719371507.875,-94.7265625,493.65234375,-724.609375,-63.4765625,NaN
1731719371511.7812,-114.74609375,-110.83984375,-915.52734375,-93.26171875,NaN
1731719371515.6875,-64.94140625,-915.52734375,-1000,-101.5625,NaN
1731719371519.5938,-29.296875,43.9453125,-830.078125,-98.14453125,NaN
1731719371523.5,-92.7734375,692.87109375,-626.46484375,-72.75390625,NaN
1731719371527.4062,-147.4609375,-46.875,-891.11328125,-97.16796875,NaN
1731719371531.3125,-83.49609375,-107.91015625,-1000,-119.62890625,NaN
1731719371535.2188,-18.06640625,514.16015625,-781.25,-64.94140625,NaN
1731719371539.125,-66.40625,655.76171875,-543.45703125,-60.546875,NaN
1731719371543.0312,-134.765625,40.52734375,-847.16796875,-104.00390625,NaN
1731719371546.9375,-97.16796875,-16.11328125,-1000,-119.62890625,NaN
1731719371550.8438,-41.015625,578.125,-733.88671875,-89.35546875,NaN
1731719371554.75,-57.12890625,437.01171875,-697.265625,-65.4296875,NaN
1731719371558.6562,-111.328125,-159.1796875,-962.890625,-93.26171875,NaN
1731719371562.5625,-106.4453125,-333.984375,-1000,-124.0234375,NaN
1731719371566.4688,-27.83203125,168.9453125,-959.9609375,-104.4921875,NaN
1731719371570.375,-18.06640625,462.890625,-780.2734375,-73.73046875,NaN
1731719371574.2812,-92.28515625,-528.3203125,-916.50390625,-57.6171875,NaN
1731719371578.1875,-109.375,-215.8203125,-929.6875,-78.61328125,NaN
1731719371582.0938,-37.109375,566.40625,-835.44921875,-95.21484375,NaN
1731719371586,14.6484375,448.2421875,-807.12890625,-46.38671875,NaN
1731719371589.9062,-39.0625,457.51953125,-730.95703125,-33.69140625,NaN
1731719371593.8125,-95.21484375,442.87109375,-803.22265625,-83.49609375,NaN
1731719371597.7188,-50.78125,443.84765625,-894.53125,-86.42578125,NaN
1731719371601.625,-2.9296875,407.71484375,-840.8203125,-31.25,NaN
1731719371605.5312,-62.01171875,114.74609375,-948.2421875,-25.390625,NaN
1731719371609.4375,-141.11328125,227.05078125,-868.65234375,-83.984375,NaN
1731719371613.3438,-104.98046875,545.41015625,-825.1953125,-105.95703125,NaN
1731719371617.25,-7.32421875,-59.08203125,-994.140625,-47.8515625,NaN
1731719371621.1562,-22.4609375,-673.33984375,-981.93359375,-20.99609375,NaN
1731719371625.0625,-112.3046875,302.24609375,-698.73046875,-72.75390625,NaN
1731719371628.9688,-111.81640625,516.11328125,-812.01171875,-113.76953125,NaN
1731719371632.875,-36.1328125,134.27734375,-956.0546875,-87.890625,NaN
1731719371636.7812,-15.625,550.78125,-615.234375,-58.10546875,NaN
1731719371640.6875,-99.609375,596.6796875,-685.546875,-71.77734375,NaN
1731719371644.5938,-136.23046875,257.8125,-955.56640625,-86.42578125,NaN
1731719371648.5,-52.734375,-31.25,-999.0234375,-79.1015625,NaN
1731719371652.4062,-6.8359375,-8.7890625,-974.12109375,-37.59765625,NaN
1731719371656.3125,-73.2421875,275.87890625,-923.828125,-57.6171875,NaN
1731719371660.2188,-119.62890625,152.83203125,-964.35546875,-97.65625,NaN
1731719371664.125,-68.84765625,-705.56640625,-1000,-77.63671875,NaN
1731719371668.0312,-28.3203125,-18.06640625,-809.5703125,-75.68359375,NaN
1731719371671.9375,-54.19921875,783.203125,-575.68359375,-62.01171875,NaN
1731719371675.8438,-92.28515625,193.359375,-834.9609375,-57.6171875,NaN
1731719371679.75,-92.28515625,-211.42578125,-1000,-88.37890625,NaN
1731719371683.6562,-41.50390625,423.828125,-789.0625,-58.10546875,NaN
1731719371687.5625,-46.38671875,954.1015625,-343.26171875,-37.109375,NaN
1731719371691.4688,-123.046875,544.43359375,-588.37890625,-83.0078125,NaN
1731719371695.375,-110.83984375,169.43359375,-1000,-115.72265625,NaN
1731719371699.2812,-31.73828125,133.7890625,-1000,-89.35546875,NaN
1731719371703.1875,-20.99609375,262.6953125,-953.125,-57.6171875,NaN
1731719371707.0938,-82.03125,-8.7890625,-916.9921875,-54.6875,NaN
1731719371711,-116.69921875,-428.7109375,-1000,-60.05859375,NaN
1731719371714.9062,-62.5,229.98046875,-970.21484375,-91.796875,NaN
1731719371718.8125,-24.90234375,623.53515625,-726.5625,-82.51953125,NaN
1731719371722.7188,-71.77734375,335.44921875,-793.45703125,-38.0859375,NaN
1731719371726.625,-123.046875,329.1015625,-893.5546875,-82.03125,NaN
1731719371730.5312,-95.703125,370.60546875,-915.52734375,-124.51171875,NaN
1731719371734.4375,-29.78515625,77.63671875,-1000,-95.21484375,NaN
1731719371738.3438,-43.9453125,-87.40234375,-965.33203125,-46.875,NaN
1731719371742.25,-117.67578125,388.18359375,-662.59765625,-61.5234375,NaN
1731719371746.1562,-113.76953125,406.73828125,-844.23828125,-108.3984375,NaN
1731719371750.0625,-30.2734375,165.0390625,-979.4921875,-71.77734375,NaN
1731719371753.9688,-4.39453125,-393.5546875,-927.734375,-16.11328125,NaN
1731719371757.875,-77.63671875,-28.80859375,-810.05859375,-33.69140625,NaN
1731719371761.7812,-108.88671875,603.515625,-742.67578125,-86.42578125,NaN
1731719371765.6875,-46.38671875,347.65625,-912.59765625,-79.58984375,NaN
1731719371769.5938,-3.90625,405.76171875,-779.78515625,-5.37109375,NaN
1731719371773.5,-47.36328125,664.55078125,-551.7578125,5.859375,NaN
1731719371777.4062,-81.0546875,498.046875,-790.0390625,-59.5703125,NaN
1731719371781.3125,-27.83203125,240.234375,-965.8203125,-67.87109375,NaN
1731719371785.2188,24.4140625,247.55859375,-876.953125,-35.64453125,NaN
1731719371789.125,-24.4140625,209.47265625,-897.94921875,-24.4140625,NaN
1731719371793.0312,-86.9140625,130.37109375,-992.67578125,-61.5234375,NaN
1731719371796.9375,-51.26953125,-281.73828125,-1000,-79.1015625,NaN
1731719371800.8438,30.76171875,-837.40234375,-1000,-19.04296875,NaN
1731719371804.75,15.625,282.71484375,-597.16796875,-1.953125,NaN
1731719371808.6562,-71.77734375,844.7265625,-444.82421875,-27.34375,NaN
1731719371812.5625,-64.94140625,98.14453125,-941.89453125,-34.1796875,NaN
1731719371816.4688,4.39453125,238.76953125,-979.4921875,-47.36328125,NaN
1731719371820.375,7.32421875,844.7265625,-488.76953125,-30.76171875,NaN
1731719371824.2812,-42.96875,732.421875,-479.98046875,-10.25390625,NaN
1731719371828.1875,-77.63671875,223.6328125,-913.57421875,-50.78125,NaN
1731719371832.0938,-39.55078125,143.06640625,-1000,-79.1015625,NaN
1731719371836,6.34765625,439.453125,-875,-33.203125,NaN
1731719371839.9062,-35.15625,255.859375,-889.6484375,7.32421875,NaN
1731719371843.8125,-77.1484375,-659.1796875,-1000,-20.99609375,NaN
1731719371847.7188,-42.96875,-326.66015625,-1000,-63.4765625,NaN
1731719371851.625,3.41796875,741.69921875,-626.953125,-26.85546875,NaN
1731719371855.5312,-20.99609375,755.859375,-415.0390625,11.23046875,NaN
1731719371859.4375,-67.3828125,171.875,-824.21875,-23.92578125,NaN
1731719371863.3438,-46.38671875,389.6484375,-827.1484375,-62.5,NaN
1731719371867.25,31.25,692.87109375,-623.53515625,-24.90234375,NaN
1731719371871.1562,9.27734375,548.828125,-612.3046875,15.13671875,NaN
1731719371875.0625,-70.3125,340.8203125,-791.9921875,-16.6015625,NaN
1731719371878.9688,-60.05859375,284.66796875,-938.96484375,-59.5703125,NaN
1731719371882.875,12.20703125,434.08203125,-879.8828125,-47.36328125,NaN
1731719371886.7812,18.06640625,98.6328125,-915.0390625,-11.71875,NaN
1731719371890.6875,-40.52734375,-196.77734375,-954.58984375,-23.4375,NaN
1731719371894.5938,-55.6640625,354.4921875,-793.45703125,-43.45703125,NaN
1731719371898.5,-11.71875,420.41015625,-876.953125,-51.26953125,NaN
1731719371902.4062,2.44140625,78.61328125,-958.984375,-39.55078125,NaN
1731719371906.3125,-50.78125,166.9921875,-833.0078125,-41.015625,NaN
1731719371910.2188,-95.21484375,312.98828125,-886.71875,-72.75390625,NaN
1731719371914.125,-58.59375,241.2109375,-997.0703125,-71.2890625,NaN
1731719371918.0312,1.953125,-133.7890625,-962.40234375,-32.2265625,NaN
1731719371921.9375,-37.59765625,256.34765625,-620.1171875,-17.578125,NaN
1731719371925.8438,-106.93359375,652.34375,-568.359375,-54.19921875,NaN
1731719371929.75,-90.8203125,329.1015625,-833.49609375,-94.23828125,NaN
1731719371933.6562,-23.92578125,-125.9765625,-1000,-65.4296875,NaN
1731719371937.5625,-27.34375,100.09765625,-831.54296875,-29.296875,NaN
1731719371941.4688,-101.5625,754.39453125,-458.0078125,-59.5703125,NaN
1731719371945.375,-115.72265625,370.60546875,-702.63671875,-99.12109375,NaN
1731719371949.2812,-43.9453125,-622.55859375,-1000,-72.265625,NaN
1731719371953.1875,-20.01953125,-44.43359375,-833.49609375,-25.87890625,NaN
1731719371957.0938,-82.51953125,505.37109375,-696.2890625,-41.015625,NaN
1731719371961,-111.81640625,-216.796875,-956.0546875,-92.7734375,NaN
1731719371964.9062,-41.9921875,-455.56640625,-1000,-62.5,NaN
1731719371968.8125,19.53125,263.18359375,-770.99609375,-5.859375,NaN
1731719371972.7188,-26.85546875,614.74609375,-540.52734375,-6.34765625,NaN
1731719371976.625,-86.42578125,218.75,-761.23046875,-41.9921875,NaN
1731719371980.5312,-48.828125,-255.37109375,-1000,-56.640625,NaN
1731719371984.4375,4.39453125,-35.64453125,-953.61328125,-20.5078125,NaN
1731719371988.3438,-16.11328125,598.14453125,-585.44921875,-0.9765625,NaN
1731719371992.25,-67.3828125,18.5546875,-787.109375,-32.71484375,NaN
1731719371996.1562,-66.89453125,-580.56640625,-1000,-73.2421875,NaN
1731719372000.0625,-8.30078125,241.2109375,-827.1484375,-58.59375,NaN
1731719372003.9688,9.27734375,592.28515625,-569.82421875,-11.23046875,NaN
1731719372007.875,-48.33984375,211.42578125,-786.62109375,-22.94921875,NaN
1731719372011.7812,-73.2421875,207.51953125,-902.83203125,-70.80078125,NaN
1731719372015.6875,-18.06640625,399.90234375,-786.1328125,-70.80078125,NaN
1731719372019.5938,3.41796875,255.37109375,-752.9296875,-32.71484375,NaN
1731719372023.5,-64.94140625,-109.86328125,-886.71875,-30.76171875,NaN
1731719372027.4062,-96.19140625,-261.71875,-1000,-60.546875,NaN
1731719372031.3125,-39.55078125,-15.625,-952.63671875,-59.5703125,NaN
1731719372035.2188,1.953125,367.67578125,-670.41015625,-24.4140625,NaN
1731719372039.125,-24.4140625,-357.91015625,-841.30859375,-17.08984375,NaN
1731719372043.0312,-99.609375,-136.23046875,-871.09375,-68.359375,NaN
1731719372046.9375,-78.125,434.08203125,-818.84765625,-96.19140625,NaN
1731719372050.8438,-24.4140625,268.5546875,-880.37109375,-71.2890625,NaN
1731719372054.75,-58.10546875,401.85546875,-665.52734375,-57.6171875,NaN
1731719372058.6562,-123.046875,573.73046875,-535.15625,-66.40625,NaN
1731719372062.5625,-107.91015625,356.4453125,-832.51953125,-84.9609375,NaN
1731719372066.4688,-37.109375,31.73828125,-989.74609375,-76.171875,NaN
1731719372070.375,-28.3203125,121.58203125,-875.9765625,-27.83203125,NaN
1731719372074.2812,-76.171875,46.38671875,-918.9453125,-21.97265625,NaN
1731719372078.1875,-86.9140625,-166.9921875,-1000,-75.68359375,NaN
1731719372082.0938,-23.4375,-441.89453125,-1000,-72.265625,NaN
1731719372086,12.20703125,-827.1484375,-978.02734375,-27.34375,NaN
1731719372089.9062,-57.12890625,160.15625,-653.3203125,-37.59765625,NaN
1731719372093.8125,-112.79296875,540.52734375,-662.109375,-85.9375,NaN
1731719372097.7188,-46.875,-36.1328125,-981.93359375,-73.73046875,NaN
1731719372101.625,4.8828125,204.58984375,-873.046875,-40.0390625,NaN
1731719372105.5312,-55.6640625,642.08984375,-595.21484375,-48.33984375,NaN
1731719372109.4375,-112.79296875,293.9453125,-807.12890625,-72.75390625,NaN
1731719372113.3438,-69.82421875,-204.58984375,-1000,-75.68359375,NaN
1731719372117.25,2.44140625,149.90234375,-889.16015625,-62.5,NaN
1731719372121.1562,-25.390625,246.58203125,-889.6484375,-42.48046875,NaN
1731719372125.0625,-100.09765625,-33.203125,-966.796875,-49.8046875,NaN
1731719372128.9688,-95.21484375,-709.9609375,-998.046875,-71.2890625,NaN
1731719372132.875,-39.0625,-551.7578125,-1000,-76.66015625,NaN
1731719372136.7812,-30.2734375,518.5546875,-656.73828125,-42.96875,NaN
1731719372140.6875,-84.47265625,563.4765625,-499.51171875,-44.43359375,NaN
1731719372144.5938,-115.234375,-169.43359375,-953.125,-81.0546875,NaN
1731719372148.5,-65.4296875,172.36328125,-951.66015625,-69.82421875,NaN
1731719372152.4062,-18.5546875,673.33984375,-577.63671875,-33.69140625,NaN
1731719372156.3125,-63.4765625,354.00390625,-734.86328125,-19.53125,NaN
1731719372160.2188,-117.67578125,192.87109375,-940.4296875,-53.7109375,NaN
1731719372164.125,-62.01171875,256.8359375,-956.54296875,-60.546875,NaN
1731719372168.0312,9.27734375,238.28125,-951.66015625,-16.11328125,NaN
1731719372171.9375,-24.90234375,-82.51953125,-918.45703125,-5.859375,NaN
1731719372175.8438,-99.12109375,-501.953125,-999.0234375,-43.45703125,NaN
1731719372179.75,-80.56640625,226.07421875,-855.95703125,-70.3125,NaN
1731719372183.6562,12.20703125,690.91796875,-629.8828125,-44.43359375,NaN
1731719372187.5625,7.8125,323.73046875,-764.16015625,-0.9765625,NaN
1731719372191.4688,-85.9375,208.49609375,-855.95703125,-40.0390625,NaN
1731719372195.375,-81.0546875,470.703125,-776.3671875,-76.66015625,NaN
1731719372199.2812,-1.953125,444.3359375,-861.81640625,-43.45703125,NaN
1731719372203.1875,9.765625,76.171875,-922.8515625,-7.8125,NaN
1731719372207.0938,-70.3125,317.87109375,-695.3125,-29.296875,NaN
1731719372211,-107.421875,533.203125,-734.86328125,-92.7734375,NaN
1731719372214.9062,-45.41015625,63.96484375,-1000,-75.1953125,NaN
1731719372218.8125,1.953125,-598.6328125,-988.76953125,-28.3203125,NaN
1731719372222.7188,-70.3125,-43.45703125,-690.91796875,-44.921875,NaN
1731719372226.625,-127.9296875,511.71875,-703.125,-78.61328125,NaN
1731719372230.5312,-51.7578125,152.34375,-951.171875,-69.3359375,NaN
1731719372234.4375,5.859375,138.18359375,-904.78515625,-49.8046875,NaN
1731719372238.3438,-39.0625,346.19140625,-775.87890625,-39.55078125,NaN
1731719372242.25,-104.98046875,454.1015625,-729.98046875,-56.640625,NaN
1731719372246.1562,-86.42578125,-5.37109375,-932.6171875,-77.1484375,NaN
1731719372250.0625,-19.53125,-277.34375,-1000,-64.453125,NaN
1731719372253.9688,-31.73828125,352.5390625,-692.87109375,-43.9453125,NaN
1731719372257.875,-105.46875,631.34765625,-523.4375,-55.6640625,NaN
1731719372261.7812,-103.515625,-323.73046875,-953.125,-83.0078125,NaN
1731719372265.6875,-20.5078125,-698.73046875,-988.76953125,-70.80078125,NaN
1731719372269.5938,7.32421875,426.26953125,-486.328125,-22.4609375,NaN
1731719372273.5,-73.2421875,647.4609375,-446.77734375,-29.78515625,NaN
1731719372277.4062,-114.74609375,-49.8046875,-904.296875,-68.359375,NaN
1731719372281.3125,-53.7109375,-74.21875,-1000,-71.77734375,NaN
1731719372285.2188,1.953125,514.6484375,-604.98046875,-37.59765625,NaN
1731719372289.125,-43.45703125,493.1640625,-497.55859375,-23.92578125,NaN
1731719372293.0312,-99.609375,13.671875,-860.83984375,-53.7109375,NaN
1731719372296.9375,-60.546875,-19.04296875,-992.67578125,-71.77734375,NaN
1731719372300.8438,9.765625,125,-908.69140625,-28.80859375,NaN
1731719372304.75,-1.953125,-96.19140625,-896.97265625,-24.4140625,NaN
1731719372308.6562,-74.21875,-808.10546875,-975.09765625,-51.26953125,NaN
1731719372312.5625,-81.0546875,-748.046875,-1000,-66.40625,NaN
1731719372316.4688,-14.6484375,-11.71875,-902.83203125,-54.19921875,NaN
1731719372320.375,-6.34765625,138.671875,-651.85546875,-33.69140625,NaN
1731719372324.2812,-78.61328125,-325.68359375,-848.14453125,-45.8984375,NaN
1731719372328.1875,-111.328125,-313.96484375,-1000,-79.1015625,NaN
1731719372332.0938,-62.98828125,-83.984375,-968.75,-72.265625,NaN
1731719372336,-21.97265625,-224.609375,-974.609375,-16.11328125,NaN
1731719372339.9062,-55.17578125,-340.8203125,-945.3125,0,NaN
1731719372343.8125,-127.9296875,-233.88671875,-927.734375,-62.01171875,NaN
1731719372347.7188,-98.6328125,-195.3125,-976.07421875,-106.4453125,NaN
1731719372351.625,-25.87890625,-229.4921875,-925.78125,-61.03515625,NaN
1731719372355.5312,-52.24609375,-402.83203125,-954.1015625,-31.25,NaN
1731719372359.4375,-116.2109375,-479.4921875,-989.2578125,-61.5234375,NaN
1731719372363.3438,-87.40234375,-504.8828125,-982.421875,-79.58984375,NaN
1731719372367.25,-9.27734375,-730.95703125,-1000,-43.45703125,NaN
1731719372371.1562,-27.83203125,-904.296875,-961.9140625,-15.13671875,NaN
1731719372375.0625,-101.5625,-199.70703125,-680.6640625,-44.43359375,NaN
1731719372378.9688,-89.35546875,-64.94140625,-768.5546875,-63.96484375,NaN
1731719372382.875,-9.765625,-455.56640625,-933.10546875,-47.8515625,NaN
1731719372386.7812,-14.16015625,-31.73828125,-554.6875,-27.83203125,NaN
1731719372390.6875,-86.42578125,167.96875,-496.09375,-34.66796875,NaN
1731719372394.5938,-105.46875,-182.6171875,-786.62109375,-77.1484375,NaN
1731719372398.5,-42.48046875,-645.01953125,-975.09765625,-83.984375,NaN
1731719372402.4062,0,-628.90625,-983.88671875,-43.45703125,NaN
1731719372406.3125,-54.6875,-155.2734375,-688.96484375,-35.15625,NaN
1731719372410.2188,-110.3515625,-173.33984375,-700.68359375,-69.82421875,NaN
1731719372414.125,-52.24609375,-846.19140625,-1000,-74.70703125,NaN
1731719372418.0312,3.90625,-648.92578125,-963.8671875,-50.78125,NaN
1731719372421.9375,-40.0390625,-12.6953125,-635.7421875,-37.109375,NaN
1731719372425.8438,-101.5625,-189.453125,-669.921875,-64.94140625,NaN
1731719372429.75,-69.3359375,-710.44921875,-970.703125,-71.77734375,NaN
1731719372433.6562,2.9296875,-221.6796875,-738.28125,-46.38671875,NaN
1731719372437.5625,-16.11328125,209.9609375,-394.53125,-20.5078125,NaN
1731719372441.4688,-86.42578125,-200.68359375,-665.52734375,-31.25,NaN
1731719372445.375,-92.7734375,-585.9375,-1000,-75.1953125,NaN
1731719372449.2812,-20.5078125,-667.48046875,-1000,-67.3828125,NaN
1731719372453.1875,8.30078125,-567.87109375,-962.890625,-33.203125,NaN
1731719372457.0938,-67.3828125,-650.87890625,-916.50390625,-30.76171875,NaN
1731719372461,-108.88671875,-864.74609375,-1000,-52.734375,NaN
1731719372464.9062,-31.73828125,-375.9765625,-914.0625,-51.26953125,NaN
1731719372468.8125,20.01953125,-71.77734375,-682.12890625,-21.484375,NaN
1731719372472.7188,-43.9453125,-439.94140625,-818.84765625,-17.08984375,NaN
1731719372476.625,-86.42578125,-786.62109375,-1000,-52.734375,NaN
1731719372480.5312,-26.3671875,-460.9375,-945.3125,-62.01171875,NaN
1731719372484.4375,34.66796875,85.44921875,-532.71484375,-14.16015625,NaN
1731719372488.3438,-2.9296875,-218.75,-602.05078125,18.5546875,NaN
1731719372492.25,-82.51953125,-197.75390625,-613.76953125,-35.15625,NaN
1731719372496.1562,-68.359375,-220.703125,-756.34765625,-65.91796875,NaN
1731719372500.0625,17.08984375,-405.76171875,-887.20703125,-28.80859375,NaN
1731719372503.9688,23.4375,-745.60546875,-907.71484375,10.25390625,NaN
1731719372507.875,-60.546875,-286.62109375,-579.1015625,-26.3671875,NaN
1731719372511.7812,-63.96484375,274.4140625,-341.30859375,-41.015625,NaN
1731719372515.6875,16.6015625,-42.48046875,-658.203125,1.46484375,NaN
1731719372519.5938,25.390625,11.71875,-540.0390625,13.671875,NaN
1731719372523.5,-45.41015625,306.640625,-253.90625,-11.23046875,NaN
1731719372527.4062,-71.2890625,336.9140625,-306.15234375,-35.64453125,NaN
1731719372531.3125,-1.46484375,-72.265625,-676.26953125,-11.71875,NaN
1731719372535.2188,43.45703125,-90.33203125,-614.2578125,17.08984375,NaN
1731719372539.125,-10.7421875,329.58984375,-199.21875,16.6015625,NaN
1731719372543.0312,-59.5703125,-43.45703125,-565.91796875,0,NaN
1731719372546.9375,-16.11328125,-708.49609375,-1000,-28.80859375,NaN
1731719372550.8438,51.26953125,-930.6640625,-1000,12.20703125,NaN
1731719372554.75,24.4140625,-86.9140625,-553.7109375,13.18359375,NaN
1731719372558.6562,-52.734375,294.43359375,-353.515625,-26.3671875,NaN
1731719372562.5625,-50.78125,-351.07421875,-868.65234375,-44.43359375,NaN
1731719372566.4688,21.97265625,-160.15625,-776.85546875,-26.3671875,NaN
1731719372570.375,36.1328125,335.9375,-359.86328125,20.5078125,NaN
1731719372574.2812,-40.52734375,168.9453125,-445.80078125,8.7890625,NaN
1731719372578.1875,-74.21875,-511.23046875,-921.875,-20.01953125,NaN
1731719372582.0938,-4.39453125,-420.8984375,-981.4453125,-12.6953125,NaN
1731719372586,42.96875,-95.21484375,-787.109375,3.90625,NaN
1731719372589.9062,-30.76171875,-391.11328125,-856.93359375,1.953125,NaN
1731719372593.8125,-72.75390625,-895.5078125,-991.2109375,-20.99609375,NaN
1731719372597.7188,-16.6015625,-704.1015625,-996.09375,-36.1328125,NaN
1731719372601.625,19.53125,-40.52734375,-748.53515625,-13.18359375,NaN
1731719372605.5312,-10.25390625,-113.28125,-698.2421875,13.18359375,NaN
1731719372609.4375,-66.89453125,-693.84765625,-957.03125,-4.8828125,NaN
1731719372613.3438,-53.22265625,-470.21484375,-969.7265625,-33.69140625,NaN
1731719372617.25,8.30078125,-0.48828125,-737.3046875,-27.83203125,NaN
1731719372621.1562,3.90625,26.85546875,-565.91796875,23.4375,NaN
1731719372625.0625,-46.38671875,-102.05078125,-676.26953125,18.06640625,NaN
1731719372628.9688,-49.8046875,-16.11328125,-700.1953125,-41.015625,NaN
1731719372632.875,-12.6953125,183.59375,-577.1484375,-45.8984375,NaN
1731719372636.7812,-5.859375,-262.20703125,-745.1171875,-5.37109375,NaN
1731719372640.6875,-44.43359375,-626.46484375,-906.73828125,-2.44140625,NaN
1731719372644.5938,-70.80078125,-119.140625,-737.3046875,-45.8984375,NaN
1731719372648.5,-30.2734375,-328.125,-926.26953125,-58.59375,NaN
1731719372652.4062,11.71875,-707.03125,-1000,-29.78515625,NaN
1731719372656.3125,-20.99609375,-489.2578125,-835.44921875,-15.625,NaN
1731719372660.2188,-86.42578125,-204.58984375,-859.375,-39.55078125,NaN
1731719372664.125,-61.03515625,-309.08203125,-1000,-64.453125,NaN
1731719372668.0312,5.859375,-443.359375,-971.6796875,-31.73828125,NaN
1731719372671.9375,-18.06640625,-29.78515625,-604.4921875,9.765625,NaN
1731719372675.8438,-92.28515625,162.59765625,-589.35546875,-24.4140625,NaN
1731719372679.75,-81.54296875,-347.16796875,-948.73046875,-82.51953125,NaN
1731719372683.6562,-3.90625,-761.71875,-994.62890625,-44.43359375,NaN
1731719372687.5625,4.8828125,-397.4609375,-766.6015625,0.48828125,NaN
1731719372691.4688,-59.5703125,7.32421875,-641.6015625,-30.2734375,NaN
1731719372695.375,-75.68359375,-430.17578125,-907.2265625,-58.59375,NaN
1731719372699.2812,7.8125,-960.44921875,-1000,-22.94921875,NaN
1731719372703.1875,25.87890625,-866.69921875,-985.83984375,16.11328125,NaN
1731719372707.0938,-49.31640625,-745.1171875,-998.53515625,-6.8359375,NaN
1731719372711,-77.1484375,-817.87109375,-994.62890625,-40.0390625,NaN
1731719372714.9062,-25.87890625,-902.34375,-1000,-35.15625,NaN
1731719372718.8125,14.6484375,-258.7890625,-784.1796875,-22.94921875,NaN
1731719372722.7188,-30.2734375,106.4453125,-604.4921875,-9.765625,NaN
1731719372726.625,-87.890625,-340.33203125,-888.671875,-35.15625,NaN
1731719372730.5312,-57.6171875,-824.70703125,-1000,-75.68359375,NaN
1731719372734.4375,13.18359375,-711.42578125,-969.23828125,-53.22265625,NaN
1731719372738.3438,-11.23046875,-200.1953125,-866.2109375,-6.8359375,NaN
1731719372742.25,-80.078125,-574.21875,-933.59375,-26.3671875,NaN
1731719372746.1562,-67.3828125,-904.78515625,-1000,-70.80078125,NaN
1731719372750.0625,4.39453125,-312.5,-951.66015625,-50.29296875,NaN
1731719372753.9688,3.90625,18.5546875,-722.65625,-14.16015625,NaN
1731719372757.875,-71.77734375,-405.2734375,-862.79296875,-29.296875,NaN
1731719372761.7812,-93.26171875,-882.8125,-1000,-79.1015625,NaN
1731719372765.6875,-31.73828125,-464.35546875,-956.0546875,-77.63671875,NaN
1731719372769.5938,-6.34765625,-89.35546875,-825.1953125,-21.484375,NaN
1731719372773.5,-59.08203125,-728.515625,-942.3828125,-3.90625,NaN
1731719372777.4062,-103.02734375,-1000,-1000,-51.7578125,NaN
1731719372781.3125,-57.6171875,-858.88671875,-981.93359375,-74.70703125,NaN
1731719372785.2188,2.9296875,-589.84375,-1000,-32.71484375,NaN
1731719372789.125,-32.2265625,-803.22265625,-979.4921875,-3.41796875,NaN
1731719372793.0312,-104.98046875,-451.171875,-860.83984375,-50.78125,NaN
1731719372796.9375,-79.1015625,-214.35546875,-948.2421875,-72.75390625,NaN
1731719372800.8438,0.9765625,-367.1875,-1000,-42.96875,NaN
1731719372804.75,-7.32421875,-369.62890625,-909.1796875,2.44140625,NaN
1731719372808.6562,-89.84375,-218.75,-849.609375,-10.7421875,NaN
1731719372812.5625,-83.49609375,-116.2109375,-918.45703125,-47.8515625,NaN
1731719372816.4688,-3.90625,-367.67578125,-990.72265625,-37.109375,NaN
1731719372820.375,-19.04296875,-522.4609375,-981.93359375,-25.87890625,NaN
1731719372824.2812,-81.54296875,-411.62109375,-943.84765625,-30.2734375,NaN
1731719372828.1875,-104.98046875,-441.89453125,-981.4453125,-74.70703125,NaN
1731719372832.0938,-49.8046875,-726.5625,-1000,-79.1015625,NaN
1731719372836,-14.6484375,-948.73046875,-982.421875,-38.57421875,NaN
1731719372839.9062,-90.33203125,-123.046875,-615.72265625,-55.17578125,NaN
1731719372843.8125,-113.28125,130.859375,-611.81640625,-67.3828125,NaN
1731719372847.7188,-46.38671875,-521.484375,-979.4921875,-56.15234375,NaN
1731719372851.625,-19.04296875,-197.75390625,-779.296875,-43.9453125,NaN
1731719372855.5312,-55.6640625,293.9453125,-445.80078125,-28.80859375,NaN
1731719372859.4375,-112.3046875,22.4609375,-641.11328125,-58.59375,NaN
1731719372863.3438,-76.171875,-445.3125,-974.609375,-84.9609375,NaN
1731719372867.25,8.30078125,-363.28125,-988.28125,-48.828125,NaN
1731719372871.1562,-10.25390625,-206.54296875,-868.1640625,-23.4375,NaN
1731719372875.0625,-88.8671875,-428.22265625,-924.31640625,-60.546875,NaN
1731719372878.9688,-92.7734375,-941.40625,-1000,-82.51953125,NaN
1731719372882.875,-28.80859375,-708.0078125,-968.75,-61.5234375,NaN
1731719372886.7812,-12.20703125,248.046875,-486.328125,-42.96875,NaN
1731719372890.6875,-65.91796875,111.328125,-519.53125,-36.62109375,NaN
1731719372894.5938,-94.7265625,-474.12109375,-974.12109375,-70.3125,NaN
1731719372898.5,-31.73828125,-221.6796875,-950.68359375,-72.265625,NaN
1731719372902.4062,11.23046875,215.8203125,-571.77734375,-10.25390625,NaN
1731719372906.3125,-33.69140625,103.02734375,-542.96875,-8.30078125,NaN
1731719372910.2188,-90.33203125,-244.140625,-928.22265625,-57.6171875,NaN
1731719372914.125,-59.08203125,-173.828125,-931.15234375,-57.6171875,NaN
1731719372918.0312,-2.9296875,-273.92578125,-960.44921875,-34.66796875,NaN
1731719372921.9375,-33.203125,-611.81640625,-1000,-21.484375,NaN
1731719372925.8438,-102.5390625,-798.33984375,-994.62890625,-43.9453125,NaN
1731719372929.75,-85.9375,-437.5,-1000,-86.9140625,NaN
1731719372933.6562,-7.32421875,-252.9296875,-984.86328125,-66.40625,NaN
1731719372937.5625,-21.97265625,-526.85546875,-975.5859375,-26.3671875,NaN
1731719372941.4688,-98.14453125,-357.421875,-810.546875,-34.1796875,NaN
1731719372945.375,-105.95703125,57.6171875,-687.5,-75.68359375,NaN
1731719372949.2812,-35.15625,-182.6171875,-942.3828125,-59.08203125,NaN
1731719372953.1875,-4.39453125,-330.078125,-939.453125,7.32421875,NaN
1731719372957.0938,-61.5234375,-87.890625,-711.42578125,5.37109375,NaN
1731719372961,-92.7734375,-136.71875,-866.2109375,-48.828125,NaN
1731719372964.9062,-46.875,-626.46484375,-1000,-75.1953125,NaN
1731719372968.8125,-11.71875,-935.546875,-977.5390625,-28.80859375,NaN
1731719372972.7188,-58.10546875,-325.68359375,-678.22265625,-15.13671875,NaN
1731719372976.625,-107.91015625,128.41796875,-526.85546875,-65.91796875,NaN
1731719372980.5312,-58.10546875,-173.828125,-823.73046875,-78.125,NaN
1731719372984.4375,3.41796875,-268.5546875,-836.9140625,-22.4609375,NaN
1731719372988.3438,-18.06640625,-21.484375,-544.43359375,21.97265625,NaN
1731719372992.25,-83.49609375,-365.234375,-845.703125,-29.78515625,NaN
1731719372996.1562,-86.42578125,-701.171875,-1000,-71.2890625,NaN
1731719373000.0625,-24.90234375,-694.82421875,-976.07421875,-56.640625,NaN
1731719373003.9688,-29.78515625,-227.5390625,-738.76953125,-32.71484375,NaN
1731719373007.875,-100.09765625,-73.2421875,-667.96875,-46.875,NaN
1731719373011.7812,-106.4453125,-726.5625,-965.33203125,-77.1484375,NaN
1731719373015.6875,-40.0390625,-943.359375,-1000,-75.1953125,NaN
1731719373019.5938,-23.92578125,-219.7265625,-713.37890625,-57.12890625,NaN
1731719373023.5,-82.03125,-27.34375,-621.58203125,-35.64453125,NaN
1731719373027.4062,-118.1640625,-626.46484375,-923.33984375,-73.73046875,NaN
1731719373031.3125,-58.59375,-736.81640625,-1000,-89.35546875,NaN
1731719373035.2188,-2.9296875,-106.93359375,-665.0390625,-37.109375,NaN
1731719373039.125,-35.64453125,59.08203125,-469.7265625,-23.92578125,NaN
1731719373043.0312,-78.125,-529.296875,-873.046875,-50.29296875,NaN
1731719373046.9375,-58.59375,-821.2890625,-1000,-77.63671875,NaN
1731719373050.8438,-9.27734375,-532.71484375,-920.41015625,-80.078125,NaN
1731719373054.75,-15.13671875,-201.171875,-704.58984375,-59.08203125,NaN
1731719373058.6562,-72.265625,-769.04296875,-873.046875,-41.015625,NaN
1731719373062.5625,-66.89453125,-888.671875,-1000,-60.05859375,NaN
1731719373066.4688,-10.7421875,-273.4375,-843.26171875,-73.73046875,NaN
1731719373070.375,0,-117.1875,-579.1015625,-13.671875,NaN
1731719373074.2812,-61.03515625,-699.70703125,-843.75,9.27734375,NaN
1731719373078.1875,-105.46875,-537.109375,-911.62109375,-56.640625,NaN
1731719373082.0938,-49.31640625,-172.8515625,-754.39453125,-76.66015625,NaN
1731719373086,1.46484375,-250.48828125,-675.29296875,-29.296875,NaN
1731719373089.9062,-46.875,-216.30859375,-583.0078125,-9.765625,NaN
1731719373093.8125,-81.54296875,-240.72265625,-704.1015625,-32.2265625,NaN
1731719373097.7188,-48.33984375,-383.30078125,-917.96875,-53.22265625,NaN
1731719373101.625,-6.8359375,-526.3671875,-902.34375,-28.80859375,NaN
1731719373105.5312,-48.828125,-612.3046875,-857.421875,-17.578125,NaN
1731719373109.4375,-109.86328125,-728.02734375,-942.87109375,-59.5703125,NaN
1731719373113.3438,-82.03125,-827.63671875,-996.09375,-83.0078125,NaN
1731719373117.25,-14.6484375,-877.9296875,-1000,-52.24609375,NaN
1731719373121.1562,-18.5546875,-949.21875,-965.8203125,-15.13671875,NaN
1731719373125.0625,-93.26171875,-422.36328125,-703.61328125,-46.38671875,NaN
1731719373128.9688,-92.7734375,-453.125,-857.91015625,-82.51953125,NaN
1731719373132.875,-18.06640625,-936.03515625,-1000,-65.4296875,NaN
1731719373136.7812,-21.97265625,-592.28515625,-815.91796875,-47.36328125,NaN
1731719373140.6875,-93.26171875,33.203125,-307.6171875,-67.87109375,NaN
1731719373144.5938,-102.05078125,-172.36328125,-519.04296875,-100.5859375,NaN
1731719373148.5,-26.85546875,-607.421875,-948.2421875,-74.21875,NaN
1731719373152.4062,-7.32421875,-511.71875,-746.09375,-40.0390625,NaN
1731719373156.3125,-70.3125,-271.97265625,-498.53515625,-39.0625,NaN
1731719373160.2188,-114.2578125,-367.1875,-632.8125,-69.82421875,NaN
1731719373164.125,-67.87109375,-948.2421875,-1000,-64.94140625,NaN
1731719373168.0312,5.37109375,-663.0859375,-775.390625,-16.6015625,NaN
1731719373171.9375,-33.69140625,179.19921875,-118.65234375,-14.16015625,NaN
1731719373175.8438,-108.88671875,-214.35546875,-435.546875,-60.546875,NaN
1731719373179.75,-75.1953125,-825.68359375,-1000,-82.03125,NaN
1731719373183.6562,-6.34765625,-403.80859375,-736.328125,-53.7109375,NaN
1731719373187.5625,-30.2734375,-45.8984375,-362.79296875,-16.11328125,NaN
1731719373191.4688,-80.56640625,-321.2890625,-530.2734375,-25.390625,NaN
1731719373195.375,-71.77734375,-532.71484375,-772.94921875,-61.03515625,NaN
1731719373199.2812,-18.06640625,-754.39453125,-955.078125,-74.21875,NaN
1731719373203.1875,-2.44140625,-906.73828125,-982.91015625,-31.25,NaN
1731719373207.0938,-54.6875,-783.203125,-831.54296875,-15.13671875,NaN
1731719373211,-98.6328125,-896.484375,-982.91015625,-60.05859375,NaN
1731719373214.9062,-55.6640625,-475.5859375,-776.85546875,-83.984375,NaN
1731719373218.8125,7.8125,-219.7265625,-491.2109375,-43.45703125,NaN
1731719373222.7188,-38.0859375,-742.67578125,-802.734375,-10.25390625,NaN
1731719373226.625,-109.375,-788.57421875,-948.2421875,-42.96875,NaN
1731719373230.5312,-55.6640625,-640.625,-960.9375,-50.29296875,NaN
1731719373234.4375,19.04296875,-722.65625,-981.93359375,-10.25390625,NaN
1731719373238.3438,-25.87890625,-885.25390625,-978.02734375,-20.01953125,NaN
1731719373242.25,-85.44921875,-968.75,-1000,-39.0625,NaN
1731719373246.1562,-48.33984375,-973.14453125,-989.74609375,-44.921875,NaN
1731719373250.0625,22.4609375,-1000,-1000,-47.8515625,NaN
1731719373253.9688,26.85546875,-977.5390625,-982.91015625,-9.27734375,NaN
1731719373257.875,-33.203125,-669.43359375,-832.03125,-15.625,NaN
1731719373261.7812,-48.33984375,-664.55078125,-930.17578125,-52.734375,NaN
1731719373265.6875,20.99609375,-956.0546875,-1000,-36.1328125,NaN
1731719373269.5938,35.64453125,-825.68359375,-903.3203125,3.41796875,NaN
1731719373273.5,-40.52734375,-539.55078125,-767.08984375,1.46484375,NaN
1731719373277.4062,-76.171875,-842.7734375,-946.2890625,-35.64453125,NaN
1731719373281.3125,-23.4375,-1000,-1000,-50.78125,NaN
1731719373285.2188,30.76171875,-859.86328125,-981.4453125,5.859375,NaN
1731719373289.125,-13.18359375,-702.1484375,-929.6875,19.04296875,NaN
1731719373293.0312,-76.66015625,-896.97265625,-954.1015625,-41.015625,NaN
1731719373296.9375,-36.1328125,-1000,-1000,-43.9453125,NaN
1731719373300.8438,22.94921875,-905.76171875,-957.51953125,-26.85546875,NaN
1731719373304.75,-9.765625,-458.984375,-677.24609375,-20.01953125,NaN
1731719373308.6562,-69.3359375,-489.74609375,-722.16796875,-21.97265625,NaN
1731719373312.5625,-62.98828125,-901.85546875,-975.5859375,-54.6875,NaN
1731719373316.4688,-3.41796875,-767.578125,-974.12109375,-60.546875,NaN
1731719373320.375,5.859375,-511.23046875,-799.8046875,-20.99609375,NaN
1731719373324.2812,-57.12890625,-593.26171875,-808.10546875,-3.90625,NaN
1731719373328.1875,-87.890625,-910.15625,-976.5625,-37.59765625,NaN
1731719373332.0938,-22.4609375,-963.37890625,-1000,-52.734375,NaN
1731719373336,20.99609375,-947.75390625,-995.1171875,-23.4375,NaN
1731719373339.9062,-43.45703125,-994.140625,-997.55859375,-29.296875,NaN
1731719373343.8125,-85.9375,-996.09375,-992.1875,-32.71484375,NaN
1731719373347.7188,-39.55078125,-1000,-1000,-39.55078125,NaN
1731719373351.625,9.765625,-548.828125,-759.765625,-44.43359375,NaN
1731719373355.5312,-10.25390625,-447.75390625,-649.90234375,-11.71875,NaN
1731719373359.4375,-71.77734375,-840.8203125,-947.75390625,-32.71484375,NaN
1731719373363.3438,-63.96484375,-737.3046875,-988.28125,-62.98828125,NaN
1731719373367.25,11.23046875,-712.40234375,-975.09765625,-19.04296875,NaN
1731719373371.1562,13.671875,-665.0390625,-854.4921875,21.97265625,NaN
1731719373375.0625,-56.640625,-712.40234375,-880.859375,-4.39453125,NaN
1731719373378.9688,-63.4765625,-651.85546875,-932.6171875,-48.828125,NaN
1731719373382.875,6.8359375,-553.7109375,-879.39453125,-38.0859375,NaN
1731719373386.7812,20.5078125,-844.23828125,-966.796875,3.90625,NaN
1731719373390.6875,-54.19921875,-1000,-997.0703125,-7.8125,NaN
1731719373394.5938,-75.1953125,-896.97265625,-990.72265625,-16.11328125,NaN
1731719373398.5,-13.671875,-708.984375,-986.328125,-29.296875,NaN
1731719373402.4062,13.671875,-830.56640625,-974.12109375,-28.3203125,NaN
1731719373406.3125,-30.2734375,-885.7421875,-919.43359375,-4.39453125,NaN
1731719373410.2188,-88.8671875,-647.4609375,-856.4453125,-44.43359375,NaN
1731719373414.125,-41.015625,-685.546875,-957.03125,-61.03515625,NaN
1731719373418.0312,20.5078125,-897.94921875,-997.55859375,-22.94921875,NaN
1731719373421.9375,-29.296875,-635.7421875,-746.09375,-19.04296875,NaN
1731719373425.8438,-88.37890625,-476.07421875,-718.26171875,-30.76171875,NaN
1731719373429.75,-57.6171875,-781.25,-963.37890625,-34.66796875,NaN
1731719373433.6562,11.71875,-1000,-1000,-20.5078125,NaN
1731719373437.5625,2.9296875,-882.32421875,-919.921875,2.44140625,NaN
1731719373441.4688,-76.171875,-650.87890625,-826.171875,-26.3671875,NaN
1731719373445.375,-95.703125,-882.32421875,-954.1015625,-53.7109375,NaN
1731719373449.2812,-20.5078125,-1000,-1000,-30.2734375,NaN
1731719373453.1875,18.5546875,-843.26171875,-907.71484375,-3.41796875,NaN
1731719373457.0938,-36.62109375,-514.6484375,-687.98828125,-9.27734375,NaN
1731719373461,-73.73046875,-737.3046875,-891.6015625,-40.0390625,NaN
1731719373464.9062,-29.296875,-960.9375,-1000,-46.875,NaN
1731719373468.8125,18.5546875,-558.10546875,-743.65234375,-12.20703125,NaN
1731719373472.7188,-20.5078125,-443.84765625,-648.4375,0.48828125,NaN
1731719373476.625,-72.265625,-812.01171875,-916.9921875,-29.296875,NaN
1731719373480.5312,-32.71484375,-1000,-1000,-42.48046875,NaN
1731719373484.4375,5.37109375,-947.75390625,-964.84375,-30.76171875,NaN
1731719373488.3438,-26.85546875,-555.6640625,-707.03125,7.8125,NaN
1731719373492.25,-91.30859375,-756.34765625,-834.9609375,-5.859375,NaN
1731719373496.1562,-89.35546875,-1000,-1000,-55.6640625,NaN
1731719373500.0625,-17.578125,-661.1328125,-857.421875,-48.828125,NaN
1731719373503.9688,-8.7890625,-388.671875,-580.56640625,-18.06640625,NaN
1731719373507.875,-77.63671875,-835.44921875,-859.375,-33.69140625,NaN
1731719373511.7812,-87.890625,-819.82421875,-977.05078125,-58.59375,NaN
1731719373515.6875,-17.578125,-485.3515625,-781.73828125,-60.546875,NaN
1731719373519.5938,-8.7890625,-334.47265625,-552.734375,-43.9453125,NaN
1731719373523.5,-82.03125,-635.25390625,-754.39453125,-38.57421875,NaN
1731719373527.4062,-110.83984375,-982.91015625,-1000,-49.8046875,NaN
1731719373531.3125,-57.12890625,-875,-965.33203125,-57.6171875,NaN
1731719373535.2188,-5.37109375,-552.734375,-756.8359375,-36.1328125,NaN
1731719373539.125,-39.55078125,-855.46875,-907.2265625,-5.859375,NaN
1731719373543.0312,-101.07421875,-834.47265625,-961.42578125,-35.64453125,NaN
1731719373546.9375,-69.3359375,-674.31640625,-934.08203125,-61.03515625,NaN
1731719373550.8438,5.37109375,-776.85546875,-1000,-33.69140625,NaN
1731719373554.75,-3.90625,-668.9453125,-809.08203125,0.9765625,NaN
1731719373558.6562,-61.03515625,-424.8046875,-633.7890625,-22.94921875,NaN
1731719373562.5625,-62.98828125,-625.48828125,-860.3515625,-54.6875,NaN
1731719373566.4688,-3.90625,-964.84375,-1000,-46.875,NaN
1731719373570.375,-1.46484375,-674.31640625,-755.37109375,3.41796875,NaN
1731719373574.2812,-69.3359375,-724.609375,-800.78125,-8.30078125,NaN
1731719373578.1875,-91.30859375,-985.83984375,-1000,-77.63671875,NaN
1731719373582.0938,-18.5546875,-922.36328125,-1000,-67.3828125,NaN
1731719373586,16.11328125,-683.10546875,-825.68359375,-20.99609375,NaN
1731719373589.9062,-40.0390625,-325.68359375,-532.2265625,-11.71875,NaN
1731719373593.8125,-73.73046875,-294.43359375,-556.15234375,-42.48046875,NaN
1731719373597.7188,-40.52734375,-762.20703125,-906.73828125,-53.22265625,NaN
1731719373601.625,-7.8125,-794.43359375,-887.20703125,-41.015625,NaN
1731719373605.5312,-54.19921875,-245.1171875,-500.9765625,-22.94921875,NaN
1731719373609.4375,-125.48828125,-377.9296875,-614.2578125,-54.6875,NaN
1731719373613.3438,-86.9140625,-838.8671875,-961.9140625,-90.33203125,NaN
1731719373617.25,-14.6484375,-658.69140625,-869.62890625,-55.17578125,NaN
1731719373621.1562,-26.85546875,-629.39453125,-794.43359375,-21.484375,NaN
1731719373625.0625,-93.26171875,-954.1015625,-957.51953125,-43.45703125,NaN
1731719373628.9688,-94.7265625,-1000,-1000,-75.1953125,NaN
1731719373632.875,-12.6953125,-670.8984375,-879.8828125,-46.875,NaN
1731719373636.7812,16.11328125,-289.0625,-570.80078125,-7.32421875,NaN
1731719373640.6875,-69.82421875,-496.58203125,-707.03125,-19.04296875,NaN
1731719373644.5938,-101.5625,-956.0546875,-994.140625,-40.0390625,NaN
1731719373648.5,-29.78515625,-924.8046875,-1000,-44.43359375,NaN
1731719373652.4062,11.23046875,-505.859375,-813.4765625,-18.06640625,NaN
1731719373656.3125,-43.9453125,-619.62890625,-797.36328125,-13.671875,NaN
1731719373660.2188,-92.7734375,-880.859375,-989.74609375,-46.38671875,NaN
1731719373664.125,-36.1328125,-721.6796875,-986.328125,-59.5703125,NaN
1731719373668.0312,20.01953125,-740.234375,-922.36328125,-35.15625,NaN
1731719373671.9375,-24.4140625,-849.12109375,-911.1328125,-12.6953125,NaN
1731719373675.8438,-91.30859375,-990.234375,-999.51171875,-38.57421875,NaN
1731719373679.75,-63.96484375,-944.3359375,-999.0234375,-64.94140625,NaN
1731719373683.6562,8.7890625,-516.6015625,-768.06640625,-26.3671875,NaN
1731719373687.5625,-6.8359375,-609.86328125,-760.25390625,5.859375,NaN
1731719373691.4688,-84.47265625,-641.6015625,-760.25390625,-35.64453125,NaN
1731719373695.375,-89.35546875,-371.58203125,-681.15234375,-67.87109375,NaN
1731719373699.2812,-23.92578125,-481.93359375,-827.63671875,-62.01171875,NaN
1731719373703.1875,-1.46484375,-561.5234375,-761.71875,-13.671875,NaN
1731719373707.0938,-78.61328125,-266.11328125,-472.16796875,-13.671875,NaN
1731719373711,-119.62890625,-476.5625,-752.9296875,-83.984375,NaN
1731719373714.9062,-41.015625,-974.609375,-1000,-73.2421875,NaN
1731719373718.8125,12.20703125,-1000,-988.28125,-25.390625,NaN
1731719373722.7188,-45.8984375,-572.75390625,-714.84375,-29.296875,NaN
1731719373726.625,-109.86328125,-421.875,-711.9140625,-73.73046875,NaN
1731719373730.5312,-63.96484375,-729.98046875,-998.046875,-78.125,NaN
1731719373734.4375,10.25390625,-951.66015625,-1000,-35.15625,NaN
1731719373738.3438,-24.4140625,-809.5703125,-921.38671875,-17.578125,NaN
1731719373742.25,-96.6796875,-608.3984375,-889.6484375,-33.203125,NaN
1731719373746.1562,-74.21875,-777.83203125,-970.21484375,-50.29296875,NaN
1731719373750.0625,10.25390625,-896.484375,-978.515625,-26.3671875,NaN
1731719373753.9688,4.8828125,-404.78515625,-605.95703125,10.25390625,NaN
1731719373757.875,-85.44921875,-305.6640625,-543.9453125,-33.203125,NaN
1731719373761.7812,-103.02734375,-918.9453125,-973.6328125,-90.33203125,NaN
1731719373765.6875,-27.83203125,-822.265625,-912.59765625,-59.08203125,NaN
1731719373769.5938,6.34765625,-227.5390625,-496.58203125,-30.2734375,NaN
1731719373773.5,-57.6171875,-174.31640625,-410.64453125,-26.3671875,NaN
1731719373777.4062,-104.4921875,-683.59375,-812.5,-53.22265625,NaN
1731719373781.3125,-53.22265625,-808.59375,-1000,-80.56640625,NaN
1731719373785.2188,-1.953125,-398.92578125,-703.61328125,-49.8046875,NaN
1731719373789.125,-66.40625,-243.65234375,-457.03125,-33.69140625,NaN
1731719373793.0312,-126.46484375,-751.46484375,-828.61328125,-51.7578125,NaN
1731719373796.9375,-71.77734375,-819.82421875,-1000,-55.6640625,NaN
1731719373800.8438,-6.8359375,-395.5078125,-727.05078125,-32.71484375,NaN
1731719373804.75,-44.43359375,-191.89453125,-424.31640625,-25.390625,NaN
1731719373808.6562,-123.53515625,-771.484375,-810.546875,-54.19921875,NaN
1731719373812.5625,-111.328125,-947.75390625,-1000,-89.35546875,NaN
1731719373816.4688,-33.203125,-445.80078125,-816.89453125,-79.58984375,NaN
1731719373820.375,-21.484375,-333.984375,-578.61328125,-33.69140625,NaN
1731719373824.2812,-84.47265625,-783.69140625,-844.7265625,-42.96875,NaN
1731719373828.1875,-108.88671875,-672.8515625,-894.04296875,-89.84375,NaN
1731719373832.0938,-33.69140625,-354.98046875,-708.984375,-84.9609375,NaN
1731719373836,16.6015625,-335.44921875,-566.40625,-26.3671875,NaN
1731719373839.9062,-49.8046875,-445.80078125,-599.12109375,-32.2265625,NaN
1731719373843.8125,-100.09765625,-470.21484375,-729.98046875,-72.75390625,NaN
1731719373847.7188,-43.45703125,-641.11328125,-895.5078125,-49.8046875,NaN
1731719373851.625,-3.41796875,-942.87109375,-991.69921875,-15.625,NaN
1731719373855.5312,-52.734375,-997.55859375,-995.60546875,-7.8125,NaN
1731719373859.4375,-123.046875,-783.69140625,-930.6640625,-42.96875,NaN
1731719373863.3438,-95.21484375,-579.1015625,-887.6953125,-87.40234375,NaN
1731719373867.25,-14.6484375,-854.4921875,-1000,-62.98828125,NaN
1731719373871.1562,-40.0390625,-884.765625,-932.6171875,-27.34375,NaN
1731719373875.0625,-113.76953125,-552.734375,-733.3984375,-37.59765625,NaN
1731719373878.9688,-109.375,-521.97265625,-779.296875,-79.1015625,NaN
1731719373882.875,-41.015625,-782.71484375,-933.10546875,-75.68359375,NaN
1731719373886.7812,-25.87890625,-717.28515625,-858.3984375,-35.15625,NaN
1731719373890.6875,-95.21484375,-407.71484375,-673.33984375,-59.5703125,NaN
1731719373894.5938,-114.2578125,-541.015625,-795.8984375,-83.49609375,NaN
1731719373898.5,-39.55078125,-895.5078125,-989.2578125,-55.17578125,NaN
1731719373902.4062,-8.30078125,-974.12109375,-999.51171875,-41.9921875,NaN
1731719373906.3125,-63.96484375,-875,-956.54296875,-31.73828125,NaN
1731719373910.2188,-106.4453125,-879.39453125,-964.35546875,-46.875,NaN
1731719373914.125,-51.7578125,-966.30859375,-1000,-59.5703125,NaN
1731719373918.0312,6.34765625,-677.24609375,-877.44140625,-28.3203125,NaN
1731719373921.9375,-21.97265625,-498.53515625,-777.34375,-22.94921875,NaN
1731719373925.8438,-95.21484375,-774.90234375,-916.015625,-68.359375,NaN
1731719373929.75,-76.66015625,-1000,-1000,-82.03125,NaN
1731719373933.6562,-7.32421875,-742.1875,-941.40625,-44.921875,NaN
1731719373937.5625,-25.87890625,-373.046875,-683.10546875,-32.71484375,NaN
1731719373941.4688,-86.42578125,-666.015625,-846.6796875,-46.875,NaN
1731719373945.375,-89.84375,-964.84375,-1000,-61.03515625,NaN
1731719373949.2812,-23.92578125,-992.1875,-1000,-38.57421875,NaN
1731719373953.1875,-10.25390625,-849.609375,-935.546875,-1.953125,NaN
1731719373957.0938,-75.68359375,-754.8828125,-862.79296875,-21.484375,NaN
1731719373961,-94.23828125,-981.93359375,-993.1640625,-59.5703125,NaN
1731719373964.9062,-41.50390625,-995.1171875,-1000,-63.4765625,NaN
1731719373968.8125,0.48828125,-547.36328125,-755.859375,-20.01953125,NaN
1731719373972.7188,-45.8984375,-657.71484375,-798.828125,-19.04296875,NaN
1731719373976.625,-103.02734375,-907.71484375,-1000,-73.2421875,NaN
1731719373980.5312,-55.6640625,-620.60546875,-952.1484375,-75.68359375,NaN
1731719373984.4375,1.953125,-513.18359375,-840.33203125,-52.24609375,NaN
1731719373988.3438,-29.296875,-526.85546875,-712.40234375,-31.25,NaN
1731719373992.25,-78.61328125,-392.578125,-605.95703125,-33.69140625,NaN
1731719373996.1562,-46.875,-810.05859375,-906.25,-51.7578125,NaN
1731719374000.0625,10.25390625,-1000,-1000,-27.34375,NaN
1731719374003.9688,-8.30078125,-964.35546875,-977.05078125,7.32421875,NaN
1731719374007.875,-75.1953125,-612.3046875,-753.41796875,-18.06640625,NaN
1731719374011.7812,-74.70703125,-337.40234375,-672.8515625,-55.17578125,NaN
1731719374015.6875,-3.41796875,-566.89453125,-901.85546875,-46.875,NaN
1731719374019.5938,20.01953125,-758.30078125,-907.2265625,-12.20703125,NaN
1731719374023.5,-39.0625,-676.7578125,-828.125,-16.6015625,NaN
1731719374027.4062,-92.28515625,-597.16796875,-886.23046875,-52.734375,NaN
1731719374031.3125,-24.4140625,-875.48828125,-1000,-53.22265625,NaN
1731719374035.2188,46.38671875,-804.6875,-879.8828125,-7.32421875,NaN
1731719374039.125,-8.30078125,-424.8046875,-661.62109375,12.6953125,NaN
1731719374043.0312,-69.3359375,-717.7734375,-873.046875,-33.69140625,NaN
1731719374046.9375,-34.66796875,-1000,-1000,-45.41015625,NaN
1731719374050.8438,43.45703125,-890.625,-964.84375,0.9765625,NaN
1731719374054.75,24.90234375,-405.76171875,-664.55078125,20.99609375,NaN
1731719374058.6562,-52.734375,-316.40625,-609.375,-20.01953125,NaN
1731719374062.5625,-37.59765625,-826.171875,-981.4453125,-44.921875,NaN
1731719374066.4688,29.296875,-666.9921875,-894.04296875,-14.6484375,NaN
1731719374070.375,23.92578125,-107.91015625,-438.96484375,13.18359375,NaN
1731719374074.2812,-41.50390625,-284.1796875,-533.203125,10.7421875,NaN
1731719374078.1875,-47.36328125,-855.95703125,-949.21875,-0.48828125,NaN
1731719374082.0938,19.53125,-819.3359375,-1000,-21.484375,NaN
1731719374086,50.29296875,-564.453125,-803.22265625,-8.30078125,NaN
1731719374089.9062,-15.625,-660.15625,-752.9296875,5.37109375,NaN
1731719374093.8125,-62.5,-962.40234375,-964.35546875,-9.765625,NaN
1731719374097.7188,-5.859375,-911.62109375,-1000,-21.484375,NaN
1731719374101.625,50.78125,-359.86328125,-676.7578125,17.578125,NaN
1731719374105.5312,1.953125,-189.453125,-440.4296875,38.0859375,NaN
1731719374109.4375,-74.21875,-531.25,-725.09765625,-9.765625,NaN
1731719374113.3438,-46.38671875,-627.44140625,-928.22265625,-43.45703125,NaN
1731719374117.25,24.4140625,-587.890625,-931.15234375,-15.13671875,NaN
1731719374121.1562,12.20703125,-519.04296875,-742.67578125,13.18359375,NaN
1731719374125.0625,-50.29296875,-562.5,-750.9765625,3.90625,NaN
1731719374128.9688,-49.8046875,-567.87109375,-886.71875,-32.71484375,NaN
1731719374132.875,21.484375,-503.90625,-833.49609375,-20.99609375,NaN
1731719374136.7812,29.78515625,-710.9375,-872.55859375,22.94921875,NaN
1731719374140.6875,-48.828125,-1000,-1000,5.37109375,NaN
1731719374144.5938,-77.1484375,-914.0625,-993.65234375,-30.2734375,NaN
1731719374148.5,-18.5546875,-830.078125,-997.55859375,-29.78515625,NaN
1731719374152.4062,24.4140625,-965.8203125,-1000,-11.71875,NaN
1731719374156.3125,-31.73828125,-834.47265625,-897.94921875,1.46484375,NaN
1731719374160.2188,-86.9140625,-628.41796875,-888.18359375,-0.48828125,NaN
1731719374164.125,-32.71484375,-814.94140625,-1000,-24.4140625,NaN
1731719374168.0312,35.15625,-875,-950.1953125,-6.8359375,NaN
1731719374171.9375,-3.41796875,-412.109375,-550.78125,15.13671875,NaN
1731719374175.8438,-65.91796875,-317.87109375,-576.171875,-17.578125,NaN
1731719374179.75,-37.59765625,-572.265625,-867.1875,-41.50390625,NaN
1731719374183.6562,16.11328125,-955.078125,-1000,-19.53125,NaN
1731719374187.5625,4.39453125,-793.9453125,-840.33203125,12.6953125,NaN
1731719374191.4688,-62.5,-475.09765625,-643.06640625,5.37109375,NaN
1731719374195.375,-75.68359375,-883.30078125,-939.94140625,-39.0625,NaN
1731719374199.2812,-8.30078125,-1000,-1000,-41.50390625,NaN
1731719374203.1875,-1.953125,-598.14453125,-725.5859375,8.30078125,NaN
1731719374207.0938,-64.453125,-247.55859375,-481.93359375,0.48828125,NaN
1731719374211,-79.58984375,-526.3671875,-736.81640625,-51.26953125,NaN
1731719374214.9062,-10.7421875,-777.34375,-979.00390625,-52.24609375,NaN
1731719374218.8125,23.4375,-456.0546875,-709.47265625,-25.390625,NaN
1731719374222.7188,-39.55078125,-155.2734375,-402.34375,-12.20703125,NaN
1731719374226.625,-73.2421875,-561.5234375,-715.33203125,-15.13671875,NaN
1731719374230.5312,-31.25,-1000,-1000,-37.59765625,NaN
1731719374234.4375,7.32421875,-877.9296875,-925.78125,-46.875,NaN
1731719374238.3438,-25.87890625,-232.421875,-448.73046875,-25.87890625,NaN
1731719374242.25,-71.77734375,-520.01953125,-665.52734375,-29.78515625,NaN
1731719374246.1562,-43.45703125,-883.30078125,-976.07421875,-46.38671875,NaN
1731719374250.0625,17.08984375,-609.86328125,-817.87109375,-27.34375,NaN
1731719374253.9688,13.18359375,-404.296875,-602.5390625,7.32421875,NaN
1731719374257.875,-59.08203125,-666.9921875,-755.859375,-2.44140625,NaN
1731719374261.7812,-68.359375,-786.1328125,-958.984375,-36.62109375,NaN
1731719374265.6875,10.25390625,-476.5625,-801.7578125,-24.4140625,NaN
1731719374269.5938,35.15625,-389.16015625,-667.48046875,-1.953125,NaN
1731719374273.5,-46.38671875,-627.9296875,-793.45703125,-20.01953125,NaN
1731719374277.4062,-84.9609375,-995.1171875,-1000,-53.22265625,NaN
1731719374281.3125,-21.97265625,-934.5703125,-969.23828125,-54.6875,NaN
1731719374285.2188,13.18359375,-602.05078125,-783.69140625,-13.18359375,NaN
1731719374289.125,-35.15625,-848.6328125,-903.3203125,15.13671875,NaN
1731719374293.0312,-92.7734375,-760.25390625,-904.296875,-44.43359375,NaN
1731719374296.9375,-54.6875,-645.99609375,-923.33984375,-71.77734375,NaN
1731719374300.8438,13.18359375,-664.55078125,-908.203125,-26.85546875,NaN
1731719374304.75,-14.6484375,-599.609375,-775.390625,-7.8125,NaN
1731719374308.6562,-90.33203125,-832.51953125,-912.109375,-47.8515625,NaN
1731719374312.5625,-85.9375,-772.94921875,-1000,-67.87109375,NaN
1731719374316.4688,-16.11328125,-667.48046875,-950.68359375,-50.29296875,NaN
1731719374320.375,-25.390625,-649.4140625,-773.92578125,-40.0390625,NaN
1731719374324.2812,-91.30859375,-755.37109375,-844.23828125,-35.64453125,NaN
1731719374328.1875,-86.42578125,-757.8125,-955.56640625,-50.29296875,NaN
1731719374332.0938,-17.578125,-762.20703125,-962.40234375,-47.36328125,NaN
1731719374336,3.41796875,-852.05078125,-916.50390625,-16.6015625,NaN
1731719374339.9062,-64.453125,-388.18359375,-595.21484375,-37.59765625,NaN
1731719374343.8125,-85.44921875,-447.75390625,-735.83984375,-55.17578125,NaN
1731719374347.7188,-5.859375,-873.53515625,-1000,-38.57421875,NaN
1731719374351.625,33.203125,-582.03125,-780.2734375,-29.296875,NaN
1731719374355.5312,-21.97265625,-245.1171875,-574.70703125,-3.41796875,NaN
1731719374359.4375,-79.58984375,-548.828125,-833.984375,-27.83203125,NaN
1731719374363.3438,-46.875,-965.33203125,-1000,-60.05859375,NaN
1731719374367.25,14.6484375,-706.54296875,-864.74609375,-31.25,NaN
1731719374371.1562,6.34765625,-488.76953125,-704.58984375,14.16015625,NaN
1731719374375.0625,-51.26953125,-784.66796875,-895.5078125,-5.859375,NaN
1731719374378.9688,-60.05859375,-994.140625,-1000,-51.26953125,NaN
1731719374382.875,-1.46484375,-886.23046875,-988.28125,-41.50390625,NaN
1731719374386.7812,7.8125,-292.96875,-609.375,-16.11328125,NaN
1731719374390.6875,-58.10546875,-200.68359375,-453.125,-13.671875,NaN
1731719374394.5938,-85.9375,-623.53515625,-877.44140625,-43.9453125,NaN
1731719374398.5,-27.83203125,-519.53125,-885.7421875,-46.875,NaN
1731719374402.4062,5.859375,-197.75390625,-535.15625,-7.8125,NaN
1731719374406.3125,-48.33984375,-468.75,-674.8046875,-3.41796875,NaN
1731719374410.2188,-91.796875,-754.8828125,-952.63671875,-41.015625,NaN
1731719374414.125,-41.9921875,-662.109375,-971.6796875,-55.17578125,NaN
1731719374418.0312,6.8359375,-750.9765625,-952.1484375,-20.01953125,NaN
1731719374421.9375,-32.2265625,-834.47265625,-905.2734375,-2.9296875,NaN
1731719374425.8438,-106.4453125,-979.00390625,-984.375,-43.9453125,NaN
1731719374429.75,-82.03125,-808.10546875,-1000,-79.58984375,NaN
1731719374433.6562,-6.34765625,-528.80859375,-897.94921875,-61.5234375,NaN
1731719374437.5625,-4.8828125,-638.671875,-811.5234375,1.46484375,NaN
1731719374441.4688,-62.98828125,-558.10546875,-697.75390625,-0.48828125,NaN
1731719374445.375,-63.96484375,-481.4453125,-790.52734375,-36.1328125,NaN
1731719374449.2812,5.859375,-606.93359375,-945.3125,-29.296875,NaN
1731719374453.1875,12.6953125,-745.1171875,-901.3671875,-18.06640625,NaN
1731719374457.0938,-50.29296875,-542.96875,-714.84375,-22.4609375,NaN
1731719374461,-70.80078125,-488.76953125,-785.15625,-33.203125,NaN
1731719374464.9062,-11.23046875,-863.76953125,-1000,-18.06640625,NaN
1731719374468.8125,31.25,-1000,-998.046875,-0.9765625,NaN
1731719374472.7188,-36.1328125,-388.671875,-515.625,-11.71875,NaN
1731719374476.625,-99.12109375,-239.2578125,-482.421875,-44.921875,NaN
1731719374480.5312,-55.6640625,-927.734375,-987.79296875,-68.359375,NaN
1731719374484.4375,7.32421875,-930.6640625,-964.35546875,-44.43359375,NaN
1731719374488.3438,-14.6484375,-258.30078125,-467.7734375,-17.578125,NaN
1731719374492.25,-90.33203125,-40.0390625,-309.08203125,-55.6640625,NaN
1731719374496.1562,-79.1015625,-475.5859375,-724.12109375,-93.26171875,NaN
1731719374500.0625,-6.34765625,-615.72265625,-816.40625,-61.03515625,NaN
1731719374503.9688,-12.20703125,-361.328125,-630.37109375,-28.80859375,NaN
1731719374507.875,-91.30859375,-662.59765625,-863.76953125,-41.50390625,NaN
1731719374511.7812,-109.375,-1000,-1000,-75.68359375,NaN
1731719374515.6875,-52.734375,-877.44140625,-980.95703125,-73.73046875,NaN
1731719374519.5938,-22.94921875,-385.7421875,-638.671875,-41.50390625,NaN
1731719374523.5,-65.91796875,-162.109375,-415.52734375,-19.04296875,NaN
1731719374527.4062,-95.703125,-694.3359375,-858.3984375,-34.1796875,NaN
1731719374531.3125,-38.57421875,-716.796875,-922.8515625,-42.48046875,NaN
1731719374535.2188,12.6953125,-276.3671875,-558.10546875,-21.97265625,NaN
1731719374539.125,-34.66796875,-535.15625,-673.33984375,-15.13671875,NaN
1731719374543.0312,-98.6328125,-856.4453125,-926.7578125,-39.55078125,NaN
1731719374546.9375,-60.05859375,-747.55859375,-962.40234375,-45.41015625,NaN
1731719374550.8438,13.671875,-612.3046875,-897.4609375,-31.25,NaN
1731719374554.75,6.34765625,-390.13671875,-625,-2.44140625,NaN
1731719374558.6562,-52.24609375,-795.41015625,-838.8671875,3.41796875,NaN
1731719374562.5625,-67.87109375,-1000,-1000,-60.05859375,NaN
1731719374566.4688,-6.8359375,-583.49609375,-889.6484375,-66.89453125,NaN
1731719374570.375,6.34765625,-326.171875,-573.2421875,-19.53125,NaN
1731719374574.2812,-57.6171875,-579.58984375,-705.56640625,-19.53125,NaN
1731719374578.1875,-84.47265625,-549.31640625,-791.9921875,-67.3828125,NaN
1731719374582.0938,-21.484375,-407.71484375,-742.67578125,-72.265625,NaN
1731719374586,-1.953125,-507.32421875,-760.25390625,-46.875,NaN
1731719374589.9062,-69.3359375,-708.0078125,-874.0234375,-58.10546875,NaN
1731719374593.8125,-105.46875,-816.89453125,-979.00390625,-66.40625,NaN
1731719374597.7188,-58.10546875,-638.18359375,-912.59765625,-61.03515625,NaN
1731719374601.625,-3.41796875,-582.03125,-833.984375,-40.52734375,NaN
1731719374605.5312,-41.9921875,-878.90625,-928.22265625,-12.6953125,NaN
1731719374609.4375,-99.12109375,-777.34375,-905.2734375,-39.0625,NaN
1731719374613.3438,-65.91796875,-474.609375,-815.4296875,-70.3125,NaN
1731719374617.25,14.16015625,-597.16796875,-834.9609375,-11.71875,NaN
1731719374621.1562,3.90625,-812.01171875,-875,-4.39453125,NaN
1731719374625.0625,-86.9140625,-309.08203125,-522.94921875,-52.734375,NaN
1731719374628.9688,-90.8203125,-383.7890625,-705.078125,-49.8046875,NaN
1731719374632.875,-32.2265625,-888.18359375,-1000,-34.66796875,NaN
1731719374636.7812,-21.97265625,-547.36328125,-694.82421875,-13.671875,NaN
1731719374640.6875,-65.4296875,-133.30078125,-410.64453125,-23.92578125,NaN
1731719374644.5938,-77.1484375,-447.265625,-702.63671875,-52.24609375,NaN
1731719374648.5,-7.8125,-887.20703125,-988.28125,-41.50390625,NaN
1731719374652.4062,26.85546875,-855.46875,-958.0078125,-19.53125,NaN
1731719374656.3125,-31.73828125,-846.19140625,-958.0078125,-24.4140625,NaN
1731719374660.2188,-72.265625,-950.68359375,-984.375,-39.0625,NaN
1731719374664.125,-23.92578125,-1000,-1000,-27.83203125,NaN
1731719374668.0312,23.4375,-666.9921875,-777.83203125,-13.671875,NaN
1731719374671.9375,-17.08984375,-28.3203125,-285.64453125,-13.671875,NaN
1731719374675.8438,-95.21484375,-235.3515625,-476.07421875,-47.8515625,NaN
1731719374679.75,-76.66015625,-708.0078125,-957.03125,-75.1953125,NaN
1731719374683.6562,-4.8828125,-489.2578125,-816.40625,-38.0859375,NaN
1731719374687.5625,-16.11328125,-101.5625,-369.62890625,-0.9765625,NaN
1731719374691.4688,-70.80078125,-345.703125,-561.5234375,-20.5078125,NaN
1731719374695.375,-79.58984375,-654.296875,-915.52734375,-61.03515625,NaN
1731719374699.2812,-30.76171875,-796.875,-981.4453125,-54.19921875,NaN
1731719374703.1875,-12.20703125,-541.50390625,-716.796875,-23.4375,NaN
1731719374707.0938,-72.265625,-464.84375,-613.28125,-33.203125,NaN
1731719374711,-100.09765625,-1000,-1000,-49.31640625,NaN
1731719374714.9062,-43.45703125,-718.26171875,-942.87109375,-65.4296875,NaN
1731719374718.8125,1.46484375,-308.59375,-632.32421875,-36.1328125,NaN
1731719374722.7188,-36.1328125,-536.1328125,-694.3359375,0.48828125,NaN
1731719374726.625,-83.0078125,-490.72265625,-733.88671875,-32.71484375,NaN
1731719374730.5312,-53.7109375,-438.4765625,-826.66015625,-60.05859375,NaN
1731719374734.4375,13.18359375,-410.15625,-757.32421875,-12.6953125,NaN
1731719374738.3438,-3.41796875,-418.9453125,-617.1875,5.859375,NaN
1731719374742.25,-74.70703125,-454.58984375,-688.96484375,-39.0625,NaN
1731719374746.1562,-41.9921875,-795.41015625,-938.96484375,-51.26953125,NaN
1731719374750.0625,28.80859375,-1000,-1000,-29.296875,NaN
1731719374753.9688,7.8125,-954.58984375,-968.75,-10.25390625,NaN
1731719374757.875,-68.359375,-619.140625,-796.38671875,-28.80859375,NaN
1731719374761.7812,-78.61328125,-574.70703125,-892.578125,-56.640625,NaN
1731719374765.6875,-13.18359375,-936.03515625,-1000,-62.01171875,NaN
1731719374769.5938,14.6484375,-913.57421875,-965.8203125,-18.5546875,NaN
1731719374773.5,-38.0859375,-589.84375,-840.8203125,-16.6015625,NaN
1731719374777.4062,-78.125,-401.3671875,-777.83203125,-58.59375,NaN
1731719374781.3125,-20.01953125,-653.3203125,-942.87109375,-57.6171875,NaN
1731719374785.2188,28.3203125,-678.22265625,-888.671875,-13.18359375,NaN
1731719374789.125,-22.94921875,-408.203125,-709.47265625,8.7890625,NaN
1731719374793.0312,-70.3125,-832.03125,-937.01171875,-31.73828125,NaN
1731719374796.9375,-28.3203125,-1000,-1000,-49.31640625,NaN
1731719374800.8438,39.0625,-1000,-1000,-4.8828125,NaN
1731719374804.75,16.11328125,-696.77734375,-930.17578125,17.578125,NaN
1731719374808.6562,-57.6171875,-416.9921875,-773.4375,-0.48828125,NaN
1731719374812.5625,-44.921875,-830.078125,-957.03125,-32.2265625,NaN
1731719374816.4688,37.59765625,-590.33203125,-846.6796875,-14.16015625,NaN
1731719374820.375,40.0390625,-205.078125,-595.703125,16.11328125,NaN
1731719374824.2812,-36.62109375,-629.8828125,-852.05078125,-4.39453125,NaN
1731719374828.1875,-60.05859375,-999.0234375,-1000,-48.828125,NaN
1731719374832.0938,10.7421875,-874.0234375,-993.1640625,-47.8515625,NaN
1731719374836,49.31640625,-604.4921875,-973.6328125,10.7421875,NaN
1731719374839.9062,-2.9296875,-769.53125,-971.6796875,33.69140625,NaN
1731719374843.8125,-38.57421875,-993.1640625,-996.58203125,-18.5546875,NaN
1731719374847.7188,-8.30078125,-779.296875,-1000,-53.22265625,NaN
1731719374851.625,36.62109375,-532.71484375,-951.66015625,-12.6953125,NaN
1731719374855.5312,0,-507.32421875,-814.453125,25.87890625,NaN
1731719374859.4375,-60.05859375,-833.0078125,-953.125,-12.6953125,NaN
1731719374863.3438,-20.5078125,-782.2265625,-1000,-29.296875,NaN
1731719374867.25,52.734375,-562.5,-933.10546875,-1.953125,NaN
1731719374871.1562,34.1796875,-662.59765625,-947.75390625,21.484375,NaN
1731719374875.0625,-43.9453125,-738.28125,-981.4453125,10.7421875,NaN
1731719374878.9688,-49.31640625,-793.9453125,-990.72265625,-20.99609375,NaN
1731719374882.875,5.859375,-935.05859375,-1000,-33.69140625,NaN
1731719374886.7812,13.671875,-946.77734375,-999.51171875,-1.46484375,NaN
1731719374890.6875,-43.9453125,-1000,-1000,20.01953125,NaN
1731719374894.5938,-61.03515625,-727.05078125,-963.37890625,-22.94921875,NaN
1731719374898.5,-1.46484375,-553.22265625,-964.35546875,-45.41015625,NaN
1731719374902.4062,33.203125,-641.11328125,-941.89453125,-4.8828125,NaN
1731719374906.3125,-24.4140625,-414.0625,-687.98828125,-4.8828125,NaN
1731719374910.2188,-72.75390625,-330.078125,-704.58984375,-30.2734375,NaN
1731719374914.125,-12.6953125,-594.23828125,-977.05078125,-4.39453125,NaN
1731719374918.0312,40.0390625,-800.29296875,-983.3984375,12.6953125,NaN
1731719374921.9375,-3.41796875,-478.515625,-705.56640625,-3.90625,NaN
1731719374925.8438,-76.171875,-322.75390625,-694.3359375,-36.1328125,NaN
1731719374929.75,-65.4296875,-760.25390625,-967.7734375,-40.52734375,NaN
1731719374933.6562,23.92578125,-984.375,-1000,0.48828125,NaN
1731719374937.5625,14.16015625,-937.98828125,-989.2578125,9.765625,NaN
1731719374941.4688,-76.171875,-750,-945.3125,-24.90234375,NaN
1731719374945.375,-69.82421875,-603.02734375,-893.06640625,-55.6640625,NaN
1731719374949.2812,11.23046875,-938.4765625,-1000,-34.1796875,NaN
1731719374953.1875,32.71484375,-707.03125,-823.2421875,14.6484375,NaN
1731719374957.0938,-42.96875,-194.3359375,-499.0234375,-7.8125,NaN
1731719374961,-91.30859375,-503.41796875,-777.34375,-64.94140625,NaN
1731719374964.9062,-32.71484375,-790.0390625,-1000,-67.87109375,NaN
1731719374968.8125,10.7421875,-394.04296875,-719.7265625,-24.4140625,NaN
1731719374972.7188,-26.85546875,-124.51171875,-439.94140625,11.71875,NaN
1731719374976.625,-74.70703125,-465.33203125,-707.51953125,-22.4609375,NaN
1731719374980.5312,-34.66796875,-1000,-1000,-26.3671875,NaN
1731719374984.4375,26.3671875,-875.9765625,-932.12890625,17.578125,NaN
1731719374988.3438,-7.32421875,-457.03125,-729.4921875,4.8828125,NaN
1731719374992.25,-66.40625,-740.234375,-885.25390625,-17.578125,NaN
1731719374996.1562,-51.7578125,-1000,-1000,-26.3671875,NaN
1731719375000.0625,-0.9765625,-656.25,-888.18359375,-51.7578125,NaN
1731719375003.9688,-7.32421875,-171.38671875,-494.140625,-24.90234375,NaN
1731719375007.875,-62.01171875,-573.2421875,-726.07421875,10.25390625,NaN
1731719375011.7812,-66.40625,-825.1953125,-1000,-21.484375,NaN
1731719375015.6875,-10.25390625,-480.95703125,-884.27734375,-50.29296875,NaN
1731719375019.5938,8.30078125,-261.23046875,-583.984375,-28.3203125,NaN
1731719375023.5,-32.71484375,-534.66796875,-748.53515625,-6.8359375,NaN
1731719375027.4062,-51.26953125,-962.890625,-1000,-28.3203125,NaN
1731719375031.3125,-19.04296875,-898.4375,-974.12109375,-34.66796875,NaN
1731719375035.2188,10.25390625,-455.56640625,-720.21484375,-8.7890625,NaN
1731719375039.125,-26.85546875,-773.92578125,-851.5625,-3.90625,NaN
1731719375043.0312,-83.49609375,-767.578125,-919.921875,-42.96875,NaN
1731719375046.9375,-64.453125,-417.48046875,-792.96875,-65.91796875,NaN
1731719375050.8438,-9.27734375,-497.55859375,-795.8984375,-37.59765625,NaN
1731719375054.75,-16.6015625,-643.06640625,-810.05859375,-2.44140625,NaN
1731719375058.6562,-74.21875,-395.01953125,-646.484375,-16.11328125,NaN
1731719375062.5625,-69.3359375,-278.3203125,-637.20703125,-59.5703125,NaN
1731719375066.4688,6.34765625,-520.01953125,-815.4296875,-54.19921875,NaN
1731719375070.375,15.13671875,-410.15625,-605.95703125,-10.7421875,NaN
1731719375074.2812,-54.6875,-559.5703125,-687.5,-12.6953125,NaN
1731719375078.1875,-91.30859375,-837.890625,-999.0234375,-69.82421875,NaN
1731719375082.0938,-34.1796875,-795.8984375,-1000,-62.01171875,NaN
1731719375086,5.37109375,-866.69921875,-947.265625,-1.953125,NaN
1731719375089.9062,-57.12890625,-232.421875,-463.37890625,-16.11328125,NaN
1731719375093.8125,-98.14453125,-44.921875,-383.30078125,-51.7578125,NaN
1731719375097.7188,-23.92578125,-483.3984375,-771.484375,-41.9921875,NaN
1731719375101.625,27.83203125,-169.921875,-486.328125,-5.37109375,NaN
1731719375105.5312,-19.04296875,328.61328125,15.13671875,20.5078125,NaN
1731719375109.4375,-68.84765625,-126.953125,-354.98046875,-5.859375,NaN
1731719375113.3438,-31.73828125,-774.4140625,-893.06640625,-33.203125,NaN
1731719375117.25,30.2734375,-474.609375,-694.82421875,-2.9296875,NaN
1731719375121.1562,-5.859375,-178.7109375,-416.9921875,0.48828125,NaN
1731719375125.0625,-91.30859375,-531.25,-646.484375,-38.57421875,NaN
1731719375128.9688,-85.44921875,-928.7109375,-976.07421875,-46.38671875,NaN
1731719375132.875,-13.671875,-594.23828125,-809.08203125,-38.57421875,NaN
1731719375136.7812,-5.859375,136.71875,-217.7734375,-17.08984375,NaN
1731719375140.6875,-65.4296875,-26.85546875,-291.015625,-22.94921875,NaN
1731719375144.5938,-83.0078125,-474.12109375,-745.60546875,-39.0625,NaN
1731719375148.5,-27.34375,-183.59375,-569.82421875,-50.78125,NaN
1731719375152.4062,12.20703125,78.125,-298.33984375,-23.4375,NaN
1731719375156.3125,-47.36328125,-173.33984375,-419.43359375,-13.18359375,NaN
1731719375160.2188,-99.609375,-422.8515625,-667.48046875,-65.4296875,NaN
1731719375164.125,-43.9453125,-577.63671875,-908.69140625,-69.82421875,NaN
1731719375168.0312,0.9765625,-694.82421875,-949.70703125,-28.80859375,NaN
1731719375171.9375,-33.69140625,-768.5546875,-870.60546875,-9.765625,NaN
1731719375175.8438,-92.28515625,-969.23828125,-985.83984375,-25.390625,NaN
1731719375179.75,-70.80078125,-569.82421875,-819.3359375,-30.76171875,NaN
1731719375183.6562,9.765625,-219.23828125,-606.93359375,-9.765625,NaN
1731719375187.5625,-3.41796875,-385.25390625,-627.9296875,6.34765625,NaN
1731719375191.4688,-75.1953125,-283.69140625,-540.52734375,-14.6484375,NaN
1731719375195.375,-72.75390625,-228.515625,-630.859375,-48.828125,NaN
1731719375199.2812,1.46484375,-443.84765625,-843.26171875,-37.109375,NaN
1731719375203.1875,24.90234375,-668.45703125,-883.7890625,-2.44140625,NaN
1731719375207.0938,-52.24609375,-329.1015625,-572.265625,-3.90625,NaN
1731719375211,-89.35546875,-399.90234375,-721.19140625,-37.109375,NaN
1731719375214.9062,-21.484375,-915.52734375,-1000,-44.43359375,NaN
1731719375218.8125,23.92578125,-969.23828125,-976.07421875,-16.6015625,NaN
1731719375222.7188,-35.15625,-796.38671875,-865.72265625,10.7421875,NaN
1731719375226.625,-88.37890625,-567.3828125,-792.48046875,-23.4375,NaN
1731719375230.5312,-40.52734375,-622.0703125,-920.41015625,-51.26953125,NaN
1731719375234.4375,1.46484375,-802.24609375,-926.26953125,-30.76171875,NaN
1731719375238.3438,-30.2734375,-328.125,-523.4375,-12.20703125,NaN
1731719375242.25,-83.0078125,-275.390625,-587.890625,-18.06640625,NaN
1731719375246.1562,-79.1015625,-751.953125,-1000,-60.546875,NaN
1731719375250.0625,-16.11328125,-647.4609375,-860.3515625,-51.26953125,NaN
1731719375253.9688,-5.859375,-80.078125,-361.81640625,-2.44140625,NaN
1731719375257.875,-69.82421875,-188.4765625,-487.79296875,-13.671875,NaN
1731719375261.7812,-68.84765625,-835.44921875,-952.63671875,-35.64453125,NaN
1731719375265.6875,6.34765625,-994.140625,-1000,-28.3203125,NaN
1731719375269.5938,22.4609375,-507.32421875,-743.1640625,7.32421875,NaN
1731719375273.5,-39.0625,-150.390625,-447.265625,2.9296875,NaN
1731719375277.4062,-75.1953125,-623.53515625,-779.296875,-50.29296875,NaN
1731719375281.3125,-34.1796875,-1000,-1000,-56.15234375,NaN
1731719375285.2188,0.9765625,-596.6796875,-807.12890625,-38.0859375,NaN
1731719375289.125,-31.73828125,-236.81640625,-496.58203125,-20.99609375,NaN
1731719375293.0312,-82.51953125,-740.234375,-825.68359375,-36.1328125,NaN
1731719375296.9375,-52.24609375,-841.30859375,-1000,-62.98828125,NaN
1731719375300.8438,-2.44140625,-361.81640625,-708.984375,-38.57421875,NaN
1731719375304.75,-19.04296875,-169.43359375,-442.87109375,-9.765625,NaN
1731719375308.6562,-62.01171875,-748.046875,-814.453125,-20.5078125,NaN
1731719375312.5625,-66.40625,-1000,-1000,-50.78125,NaN
1731719375316.4688,-8.7890625,-688.4765625,-934.5703125,-52.24609375,NaN
1731719375320.375,9.27734375,-407.2265625,-699.70703125,6.8359375,NaN
1731719375324.2812,-56.15234375,-852.5390625,-891.11328125,1.46484375,NaN
1731719375328.1875,-91.30859375,-1000,-1000,-64.453125,NaN
1731719375332.0938,-36.1328125,-704.1015625,-966.796875,-71.77734375,NaN
1731719375336,-7.8125,-678.22265625,-930.6640625,-24.90234375,NaN
1731719375339.9062,-68.359375,-800.29296875,-908.69140625,-16.6015625,NaN
1731719375343.8125,-115.72265625,-687.98828125,-921.38671875,-62.98828125,NaN
1731719375347.7188,-55.17578125,-507.8125,-883.30078125,-76.66015625,NaN
1731719375351.625,12.6953125,-623.046875,-892.578125,-38.57421875,NaN
1731719375355.5312,-26.3671875,-995.60546875,-1000,-14.16015625,NaN
1731719375359.4375,-79.1015625,-986.328125,-1000,-40.0390625,NaN
1731719375363.3438,-41.015625,-690.91796875,-978.02734375,-62.01171875,NaN
1731719375367.25,32.2265625,-836.9140625,-1000,-29.78515625,NaN
1731719375371.1562,5.859375,-916.9921875,-948.73046875,-4.8828125,NaN
1731719375375.0625,-82.03125,-549.31640625,-791.015625,-37.109375,NaN
1731719375378.9688,-73.73046875,-668.45703125,-934.08203125,-54.19921875,NaN
1731719375382.875,4.8828125,-995.60546875,-1000,-22.4609375,NaN
1731719375386.7812,16.11328125,-830.56640625,-946.77734375,12.20703125,NaN
1731719375390.6875,-57.12890625,-449.70703125,-779.78515625,-13.671875,NaN
1731719375394.5938,-83.49609375,-775.390625,-938.4765625,-39.55078125,NaN
1731719375398.5,-21.484375,-1000,-1000,-45.41015625,NaN
1731719375402.4062,8.30078125,-894.04296875,-998.53515625,-32.2265625,NaN
1731719375406.3125,-46.875,-738.28125,-937.01171875,-18.5546875,NaN
1731719375410.2188,-82.03125,-592.28515625,-884.765625,-37.59765625,NaN
1731719375414.125,-22.4609375,-953.61328125,-1000,-32.2265625,NaN
1731719375418.0312,26.3671875,-887.20703125,-975.09765625,-1.953125,NaN
1731719375421.9375,-33.203125,-457.51953125,-812.01171875,3.41796875,NaN
1731719375425.8438,-99.12109375,-671.38671875,-910.64453125,-23.92578125,NaN
1731719375429.75,-74.70703125,-951.171875,-1000,-62.01171875,NaN
1731719375433.6562,-9.27734375,-728.02734375,-997.0703125,-39.55078125,NaN
1731719375437.5625,-17.578125,-435.546875,-802.734375,-7.32421875,NaN
1731719375441.4688,-82.03125,-617.67578125,-855.95703125,-46.875,NaN
1731719375445.375,-89.84375,-881.34765625,-1000,-87.890625,NaN
1731719375449.2812,-23.4375,-941.89453125,-993.1640625,-61.03515625,NaN
1731719375453.1875,2.44140625,-995.60546875,-998.046875,-17.08984375,NaN
1731719375457.0938,-64.94140625,-999.51171875,-1000,-21.484375,NaN
1731719375461,-84.9609375,-989.2578125,-991.2109375,-30.2734375,NaN
1731719375464.9062,-31.73828125,-731.4453125,-993.1640625,-51.26953125,NaN
1731719375468.8125,-6.8359375,-484.375,-847.16796875,-42.48046875,NaN
1731719375472.7188,-51.26953125,-565.91796875,-768.06640625,-30.2734375,NaN
1731719375476.625,-88.8671875,-633.30078125,-891.11328125,-67.3828125,NaN
1731719375480.5312,-34.66796875,-502.9296875,-916.9921875,-64.94140625,NaN
1731719375484.4375,23.92578125,-628.41796875,-972.16796875,-23.4375,NaN
1731719375488.3438,1.46484375,-739.74609375,-936.03515625,-1.953125,NaN
1731719375492.25,-61.03515625,-652.83203125,-901.85546875,-14.16015625,NaN
1731719375496.1562,-57.12890625,-904.78515625,-991.2109375,-41.015625,NaN
1731719375500.0625,16.11328125,-1000,-1000,-32.2265625,NaN
1731719375503.9688,15.625,-932.12890625,-983.3984375,8.30078125,NaN
1731719375507.875,-53.22265625,-861.81640625,-978.02734375,-14.6484375,NaN
1731719375511.7812,-54.6875,-857.91015625,-959.47265625,-61.5234375,NaN
1731719375515.6875,1.953125,-651.3671875,-916.015625,-32.71484375,NaN
1731719375519.5938,20.5078125,-658.203125,-838.37890625,18.5546875,NaN
1731719375523.5,-40.52734375,-315.4296875,-552.734375,-1.46484375,NaN
1731719375527.4062,-75.1953125,-363.76953125,-783.203125,-43.45703125,NaN
1731719375531.3125,-21.484375,-746.58203125,-1000,-51.7578125,NaN
1731719375535.2188,13.18359375,-639.16015625,-877.9296875,-28.80859375,NaN
1731719375539.125,-37.109375,-412.109375,-735.83984375,-25.390625,NaN
1731719375543.0312,-83.49609375,-834.47265625,-935.05859375,-39.0625,NaN
1731719375546.9375,-41.50390625,-1000,-1000,-42.96875,NaN
1731719375550.8438,27.83203125,-677.734375,-873.046875,-24.4140625,NaN
1731719375554.75,4.8828125,-274.90234375,-616.69921875,0.48828125,NaN
1731719375558.6562,-67.3828125,-377.9296875,-691.89453125,-35.15625,NaN
1731719375562.5625,-59.08203125,-838.37890625,-953.61328125,-47.8515625,NaN
1731719375566.4688,16.11328125,-866.69921875,-1000,-16.6015625,NaN
1731719375570.375,22.4609375,-586.42578125,-892.08984375,-11.23046875,NaN
1731719375574.2812,-40.0390625,-409.1796875,-740.72265625,-18.06640625,NaN
1731719375578.1875,-41.015625,-871.09375,-963.37890625,-14.16015625,NaN
1731719375582.0938,17.08984375,-1000,-1000,2.9296875,NaN
1731719375586,30.2734375,-338.8671875,-618.1640625,14.16015625,NaN
1731719375589.9062,-15.625,-349.12109375,-597.65625,23.4375,NaN
1731719375593.8125,-44.43359375,-944.82421875,-970.703125,1.46484375,NaN
1731719375597.7188,12.20703125,-818.84765625,-1000,-5.859375,NaN
1731719375601.625,49.31640625,-226.5625,-618.1640625,18.5546875,NaN
1731719375605.5312,5.859375,-137.20703125,-426.26953125,28.3203125,NaN
1731719375609.4375,-44.921875,-569.3359375,-813.96484375,16.6015625,NaN
1731719375613.3438,-29.296875,-530.76171875,-915.52734375,-26.85546875,NaN
1731719375617.25,48.828125,-255.37109375,-714.35546875,-13.671875,NaN
1731719375621.1562,40.0390625,-513.671875,-803.22265625,27.34375,NaN
1731719375625.0625,-45.41015625,-854.4921875,-993.65234375,-7.8125,NaN
1731719375628.9688,-56.640625,-461.42578125,-756.34765625,-44.921875,NaN
1731719375632.875,15.625,-155.76171875,-567.3828125,-20.01953125,NaN
1731719375636.7812,33.69140625,-495.60546875,-706.54296875,20.01953125,NaN
1731719375640.6875,-30.2734375,-956.54296875,-969.23828125,21.97265625,NaN
1731719375644.5938,-61.03515625,-748.046875,-964.35546875,-26.85546875,NaN
1731719375648.5,-6.8359375,-450.68359375,-852.5390625,-34.1796875,NaN
1731719375652.4062,28.80859375,-531.25,-818.359375,5.859375,NaN
1731719375656.3125,-27.34375,-304.19921875,-544.921875,-0.9765625,NaN
1731719375660.2188,-76.171875,-280.76171875,-620.1171875,-33.69140625,NaN
1731719375664.125,-36.1328125,-584.9609375,-938.96484375,-51.7578125,NaN
1731719375668.0312,11.23046875,-821.2890625,-986.81640625,-46.38671875,NaN
1731719375671.9375,-34.1796875,-530.76171875,-725.09765625,-35.15625,NaN
1731719375675.8438,-75.1953125,-301.26953125,-615.234375,-37.109375,NaN
1731719375679.75,-43.9453125,-535.15625,-829.58984375,-50.78125,NaN
1731719375683.6562,5.859375,-893.06640625,-987.3046875,-24.4140625,NaN
1731719375687.5625,3.90625,-708.0078125,-746.58203125,9.27734375,NaN
1731719375691.4688,-54.6875,-286.62109375,-536.62109375,-18.06640625,NaN
1731719375695.375,-59.5703125,-450.1953125,-758.7890625,-44.921875,NaN
1731719375699.2812,13.18359375,-926.7578125,-1000,-20.99609375,NaN
1731719375703.1875,30.2734375,-562.01171875,-718.26171875,-1.46484375,NaN
1731719375707.0938,-44.43359375,50.78125,-262.6953125,-16.11328125,NaN
1731719375711,-72.75390625,-333.49609375,-593.26171875,-51.26953125,NaN
1731719375714.9062,-5.859375,-818.84765625,-1000,-46.875,NaN
1731719375718.8125,36.62109375,-460.44921875,-737.3046875,-5.859375,NaN
1731719375722.7188,-18.5546875,-116.2109375,-411.62109375,3.90625,NaN
1731719375726.625,-71.2890625,-516.6015625,-739.2578125,-26.85546875,NaN
1731719375730.5312,-13.18359375,-1000,-1000,-42.48046875,NaN
1731719375734.4375,47.8515625,-883.7890625,-938.4765625,-12.6953125,NaN
1731719375738.3438,0,-607.91015625,-783.69140625,0,NaN
1731719375742.25,-69.3359375,-839.84375,-921.38671875,-23.4375,NaN
1731719375746.1562,-48.33984375,-1000,-1000,-26.85546875,NaN
1731719375750.0625,20.5078125,-549.8046875,-811.5234375,-6.8359375,NaN
1731719375753.9688,9.27734375,-252.9296875,-579.1015625,19.04296875,NaN
1731719375757.875,-67.87109375,-610.83984375,-783.203125,-13.671875,NaN
1731719375761.7812,-62.5,-705.078125,-1000,-52.734375,NaN
1731719375765.6875,5.859375,-469.23828125,-885.25390625,-45.8984375,NaN
1731719375769.5938,8.7890625,-316.89453125,-629.8828125,-33.69140625,NaN
1731719375773.5,-56.15234375,-697.265625,-838.37890625,-33.203125,NaN
1731719375777.4062,-83.984375,-1000,-1000,-48.33984375,NaN
1731719375781.3125,-26.85546875,-921.38671875,-974.609375,-63.4765625,NaN
1731719375785.2188,21.484375,-641.11328125,-844.7265625,-20.5078125,NaN
1731719375789.125,-20.5078125,-792.96875,-893.5546875,30.2734375,NaN
1731719375793.0312,-84.47265625,-820.80078125,-948.73046875,-42.48046875,NaN
1731719375796.9375,-56.640625,-822.265625,-937.01171875,-73.73046875,NaN
1731719375800.8438,20.99609375,-754.8828125,-906.25,-30.2734375,NaN
1731719375804.75,10.25390625,-745.1171875,-875.9765625,4.39453125,NaN
1731719375808.6562,-69.3359375,-490.234375,-690.4296875,-35.64453125,NaN
1731719375812.5625,-64.453125,-583.0078125,-887.6953125,-70.80078125,NaN
1731719375816.4688,2.44140625,-731.93359375,-1000,-25.390625,NaN
1731719375820.375,3.41796875,-424.8046875,-706.0546875,-10.25390625,NaN
1731719375824.2812,-53.22265625,-579.1015625,-749.0234375,-29.296875,NaN
1731719375828.1875,-62.98828125,-929.6875,-984.86328125,-39.0625,NaN
1731719375832.0938,4.8828125,-947.75390625,-1000,-22.4609375,NaN
1731719375836,26.85546875,-870.60546875,-944.3359375,3.90625,NaN
1731719375839.9062,-48.33984375,-393.5546875,-620.60546875,-10.7421875,NaN
1731719375843.8125,-94.23828125,-309.08203125,-636.23046875,-41.50390625,NaN
1731719375847.7188,-29.296875,-613.28125,-885.7421875,-32.71484375,NaN
1731719375851.625,22.94921875,-512.6953125,-770.5078125,-7.32421875,NaN
1731719375855.5312,-36.62109375,-439.94140625,-669.921875,0,NaN
1731719375859.4375,-101.07421875,-554.19921875,-804.19921875,-32.71484375,NaN
1731719375863.3438,-58.59375,-870.1171875,-982.91015625,-47.36328125,NaN
1731719375867.25,1.953125,-646.97265625,-816.89453125,-29.296875,NaN
1731719375871.1562,-28.80859375,-420.41015625,-655.2734375,-16.6015625,NaN
1731719375875.0625,-93.75,-604.98046875,-720.703125,-30.76171875,NaN
1731719375878.9688,-85.9375,-917.96875,-957.51953125,-47.36328125,NaN
1731719375882.875,-13.671875,-729.00390625,-926.7578125,-41.015625,NaN
1731719375886.7812,8.30078125,-122.0703125,-438.96484375,-12.6953125,NaN
1731719375890.6875,-57.12890625,-118.65234375,-380.859375,-17.578125,NaN
1731719375894.5938,-83.49609375,-508.7890625,-796.875,-50.78125,NaN
1731719375898.5,-18.5546875,-391.11328125,-753.90625,-39.55078125,NaN
1731719375902.4062,15.625,-122.55859375,-452.1484375,-3.41796875,NaN
1731719375906.3125,-42.48046875,-232.91015625,-478.02734375,-0.9765625,NaN
1731719375910.2188,-77.1484375,-811.5234375,-930.17578125,-22.94921875,NaN
1731719375914.125,-27.34375,-728.02734375,-935.546875,-41.50390625,NaN
1731719375918.0312,22.94921875,-418.9453125,-690.4296875,-26.3671875,NaN
1731719375921.9375,-18.5546875,-719.23828125,-835.9375,-1.953125,NaN
1731719375925.8438,-70.80078125,-972.16796875,-991.2109375,1.953125,NaN
1731719375929.75,-43.9453125,-653.80859375,-895.5078125,-6.34765625,NaN
1731719375933.6562,9.27734375,-321.2890625,-720.703125,-19.04296875,NaN
1731719375937.5625,-0.48828125,-353.515625,-599.12109375,-15.13671875,NaN
1731719375941.4688,-70.80078125,-426.26953125,-642.578125,-20.01953125,NaN
1731719375945.375,-80.56640625,-496.58203125,-812.5,-41.50390625,NaN
1731719375949.2812,-9.765625,-416.015625,-762.6953125,-29.296875,NaN
1731719375953.1875,6.34765625,-619.62890625,-811.5234375,-10.7421875,NaN
1731719375957.0938,-58.10546875,-490.72265625,-694.82421875,-17.578125,NaN
1731719375961,-98.6328125,-369.140625,-685.05859375,-59.5703125,NaN
1731719375964.9062,-37.109375,-849.609375,-981.4453125,-57.6171875,NaN
1731719375968.8125,20.99609375,-905.76171875,-952.1484375,-4.8828125,NaN
1731719375972.7188,-29.78515625,-456.0546875,-606.93359375,0.48828125,NaN
1731719375976.625,-104.98046875,-137.6953125,-428.22265625,-47.8515625,NaN
1731719375980.5312,-74.70703125,-201.66015625,-522.94921875,-71.2890625,NaN
1731719375984.4375,-1.953125,-889.16015625,-950.1953125,-28.80859375,NaN
1731719375988.3438,-37.109375,-683.59375,-767.578125,-15.13671875,NaN
1731719375992.25,-99.12109375,-199.70703125,-487.79296875,-31.25,NaN
1731719375996.1562,-74.70703125,-513.18359375,-832.03125,-44.43359375,NaN
1731719376000.0625,-6.8359375,-631.34765625,-946.77734375,-32.71484375,NaN
1731719376003.9688,-4.8828125,-313.96484375,-624.0234375,1.953125,NaN
1731719376007.875,-68.359375,-197.75390625,-513.18359375,-14.16015625,NaN
1731719376011.7812,-82.03125,-741.69921875,-911.1328125,-56.640625,NaN
1731719376015.6875,-25.87890625,-875,-968.26171875,-62.5,NaN
1731719376019.5938,-14.16015625,-173.828125,-416.50390625,-32.71484375,NaN
1731719376023.5,-71.2890625,-115.234375,-369.62890625,-33.203125,NaN
1731719376027.4062,-95.703125,-779.78515625,-909.1796875,-49.31640625,NaN
1731719376031.3125,-39.0625,-803.22265625,-958.49609375,-41.015625,NaN
1731719376035.2188,-5.859375,-187.98828125,-505.37109375,-20.5078125,NaN
1731719376039.125,-48.828125,-108.3984375,-385.25390625,-8.7890625,NaN
1731719376043.0312,-89.84375,-694.3359375,-864.74609375,-26.85546875,NaN
1731719376046.9375,-57.12890625,-710.44921875,-1000,-49.8046875,NaN
1731719376050.8438,-4.8828125,-153.3203125,-562.01171875,-34.1796875,NaN
1731719376054.75,-33.69140625,-88.37890625,-431.640625,-29.296875,NaN
1731719376058.6562,-87.40234375,-792.96875,-875.9765625,-52.734375,NaN
1731719376062.5625,-73.2421875,-1000,-1000,-70.80078125,NaN
1731719376066.4688,-19.53125,-670.41015625,-967.28515625,-73.2421875,NaN
1731719376070.375,-20.01953125,-490.72265625,-867.67578125,-43.45703125,NaN
1731719376074.2812,-70.80078125,-886.23046875,-945.80078125,-30.76171875,NaN
1731719376078.1875,-73.73046875,-1000,-1000,-64.94140625,NaN
1731719376082.0938,-20.5078125,-967.7734375,-991.2109375,-65.4296875,NaN
1731719376086,8.7890625,-1000,-1000,-13.18359375,NaN
1731719376089.9062,-46.875,-949.70703125,-1000,-19.53125,NaN
1731719376093.8125,-105.95703125,-937.98828125,-1000,-83.49609375,NaN
1731719376097.7188,-64.94140625,-993.1640625,-1000,-95.703125,NaN
1731719376101.625,-6.34765625,-990.72265625,-1000,-32.2265625,NaN
1731719376105.5312,-42.96875,-998.046875,-1000,-18.5546875,NaN
1731719376109.4375,-92.7734375,-1000,-1000,-54.6875,NaN
1731719376113.3438,-61.5234375,-895.99609375,-998.046875,-68.359375,NaN
1731719376117.25,-5.859375,-931.15234375,-1000,-52.734375,NaN
1731719376121.1562,-33.69140625,-925.78125,-986.81640625,-32.2265625,NaN
1731719376125.0625,-94.7265625,-642.578125,-967.7734375,-51.26953125,NaN
1731719376128.9688,-87.890625,-684.5703125,-1000,-80.56640625,NaN
1731719376132.875,-25.390625,-830.56640625,-1000,-57.12890625,NaN
1731719376136.7812,-20.01953125,-678.22265625,-936.03515625,-1.953125,NaN
1731719376140.6875,-91.796875,-798.33984375,-972.16796875,-24.90234375,NaN
1731719376144.5938,-104.00390625,-943.84765625,-1000,-55.17578125,NaN
1731719376148.5,-39.0625,-950.68359375,-995.60546875,-31.73828125,NaN
1731719376152.4062,-1.46484375,-1000,-1000,-11.23046875,NaN
1731719376156.3125,-60.546875,-943.84765625,-1000,-35.15625,NaN
1731719376160.2188,-95.21484375,-816.89453125,-991.2109375,-66.40625,NaN
1731719376164.125,-41.015625,-982.421875,-1000,-62.98828125,NaN
1731719376168.0312,7.8125,-729.00390625,-921.38671875,-29.296875,NaN
1731719376171.9375,-27.34375,-298.828125,-722.16796875,-6.34765625,NaN
1731719376175.8438,-86.42578125,-640.13671875,-877.44140625,-36.1328125,NaN
1731719376179.75,-55.17578125,-933.59375,-1000,-50.29296875,NaN
1731719376183.6562,21.484375,-551.26953125,-898.4375,-29.78515625,NaN
1731719376187.5625,7.32421875,-136.71875,-528.80859375,-16.6015625,NaN
1731719376191.4688,-58.59375,-254.39453125,-556.640625,-28.3203125,NaN
1731719376195.375,-47.36328125,-832.03125,-981.4453125,-50.29296875,NaN
1731719376199.2812,10.25390625,-990.234375,-1000,-44.921875,NaN
1731719376203.1875,8.7890625,-783.203125,-925.78125,-14.6484375,NaN
1731719376207.0938,-55.17578125,-819.82421875,-957.03125,-16.11328125,NaN
1731719376211,-75.68359375,-1000,-1000,-48.828125,NaN
1731719376214.9062,-22.4609375,-861.81640625,-990.72265625,-48.828125,NaN
1731719376218.8125,8.7890625,-415.0390625,-762.20703125,-24.4140625,NaN
1731719376222.7188,-41.9921875,-508.7890625,-767.578125,-16.11328125,NaN
1731719376226.625,-91.30859375,-554.6875,-853.02734375,-45.8984375,NaN
1731719376230.5312,-46.875,-446.2890625,-875.9765625,-62.5,NaN
1731719376234.4375,18.06640625,-666.9921875,-989.2578125,-3.41796875,NaN
1731719376238.3438,-6.8359375,-860.3515625,-994.140625,21.97265625,NaN
1731719376242.25,-81.54296875,-803.7109375,-983.88671875,-30.76171875,NaN
1731719376246.1562,-68.359375,-932.12890625,-1000,-65.91796875,NaN
1731719376250.0625,3.90625,-1000,-998.53515625,-41.015625,NaN
1731719376253.9688,6.8359375,-1000,-1000,-17.578125,NaN
1731719376257.875,-65.91796875,-854.4921875,-952.1484375,-35.64453125,NaN
1731719376261.7812,-85.9375,-525.390625,-895.01953125,-64.453125,NaN
1731719376265.6875,-14.6484375,-580.078125,-967.7734375,-50.29296875,NaN
1731719376269.5938,14.6484375,-789.0625,-915.0390625,-13.18359375,NaN
1731719376273.5,-49.31640625,-481.4453125,-697.265625,11.71875,NaN
1731719376277.4062,-93.26171875,-430.6640625,-818.359375,-12.6953125,NaN
1731719376281.3125,-35.15625,-725.5859375,-1000,-68.359375,NaN
1731719376285.2188,13.18359375,-744.62890625,-929.6875,-39.55078125,NaN
1731719376289.125,-41.015625,-525.390625,-775.87890625,-13.671875,NaN
1731719376293.0312,-92.7734375,-830.078125,-913.0859375,-51.26953125,NaN
1731719376296.9375,-45.8984375,-1000,-1000,-52.734375,NaN
1731719376300.8438,13.671875,-908.69140625,-960.44921875,-2.9296875,NaN
1731719376304.75,-24.4140625,-341.30859375,-592.7734375,-8.7890625,NaN
1731719376308.6562,-88.37890625,-347.16796875,-649.4140625,-24.90234375,NaN
1731719376312.5625,-66.40625,-957.03125,-1000,-31.25,NaN
1731719376316.4688,14.6484375,-763.671875,-932.6171875,-23.92578125,NaN
1731719376320.375,25.87890625,-110.83984375,-482.421875,1.953125,NaN
1731719376324.2812,-59.5703125,-254.39453125,-544.921875,-17.08984375,NaN
1731719376328.1875,-75.1953125,-865.72265625,-976.07421875,-38.0859375,NaN
1731719376332.0938,0,-733.88671875,-995.1171875,-31.73828125,NaN
1731719376336,17.578125,-278.3203125,-667.96875,-15.625,NaN
1731719376339.9062,-45.8984375,-511.71875,-702.63671875,-21.484375,NaN
1731719376343.8125,-72.265625,-959.9609375,-991.2109375,-28.80859375,NaN
1731719376347.7188,-18.5546875,-824.70703125,-1000,-29.78515625,NaN
1731719376351.625,36.62109375,-456.54296875,-813.96484375,-7.8125,NaN
1731719376355.5312,-11.71875,-397.94921875,-652.83203125,8.30078125,NaN
1731719376359.4375,-75.1953125,-650.87890625,-863.28125,-17.08984375,NaN
1731719376363.3438,-23.4375,-572.265625,-943.84765625,-39.55078125,NaN
1731719376367.25,31.25,-518.5546875,-886.71875,-30.2734375,NaN
1731719376371.1562,0.48828125,-625.9765625,-803.7109375,-6.8359375,NaN
1731719376375.0625,-62.01171875,-771.484375,-882.8125,-3.41796875,NaN
1731719376378.9688,-70.3125,-554.6875,-872.55859375,-33.203125,NaN
1731719376382.875,-0.9765625,-290.0390625,-699.70703125,-37.109375,NaN
1731719376386.7812,31.73828125,-611.328125,-813.96484375,8.30078125,NaN
1731719376390.6875,-39.0625,-844.23828125,-930.17578125,-5.859375,NaN
1731719376394.5938,-83.0078125,-436.5234375,-714.35546875,-57.6171875,NaN
1731719376398.5,-15.13671875,-174.8046875,-555.17578125,-32.2265625,NaN
1731719376402.4062,34.66796875,-439.94140625,-664.0625,17.578125,NaN
1731719376406.3125,-27.83203125,-672.36328125,-785.15625,9.27734375,NaN
1731719376410.2188,-79.58984375,-524.4140625,-784.1796875,-20.99609375,NaN
1731719376414.125,-41.9921875,-534.66796875,-885.7421875,-27.34375,NaN
1731719376418.0312,13.671875,-734.86328125,-908.203125,-0.48828125,NaN
1731719376421.9375,-10.25390625,-393.06640625,-508.7890625,11.23046875,NaN
1731719376425.8438,-63.4765625,-447.265625,-645.5078125,-18.06640625,NaN
1731719376429.75,-34.66796875,-738.76953125,-996.09375,-30.2734375,NaN
1731719376433.6562,27.34375,-941.40625,-1000,7.32421875,NaN
1731719376437.5625,-4.8828125,-753.90625,-786.62109375,8.7890625,NaN
1731719376441.4688,-90.33203125,-127.9296875,-358.3984375,-42.96875,NaN
1731719376445.375,-95.703125,-350.09765625,-605.95703125,-61.5234375,NaN
1731719376449.2812,-15.13671875,-726.5625,-896.484375,-31.73828125,NaN
1731719376453.1875,14.6484375,-368.65234375,-607.421875,7.32421875,NaN
1731719376457.0938,-59.5703125,-214.84375,-525.390625,-27.83203125,NaN
1731719376461,-94.7265625,-519.04296875,-762.6953125,-71.77734375,NaN
1731719376464.9062,-28.80859375,-784.1796875,-966.796875,-56.15234375,NaN
1731719376468.8125,17.08984375,-280.2734375,-555.6640625,-33.69140625,NaN
1731719376472.7188,-27.34375,62.5,-243.1640625,-18.06640625,NaN
1731719376476.625,-72.75390625,-481.93359375,-713.8671875,-39.55078125,NaN
1731719376480.5312,-47.36328125,-983.88671875,-1000,-54.19921875,NaN
1731719376484.4375,9.765625,-872.0703125,-937.01171875,-24.4140625,NaN
1731719376488.3438,-14.16015625,-440.4296875,-629.8828125,-7.8125,NaN
1731719376492.25,-71.77734375,-531.73828125,-684.5703125,-30.2734375,NaN
1731719376496.1562,-39.0625,-1000,-1000,-22.4609375,NaN
1731719376500.0625,13.18359375,-561.03515625,-773.92578125,-15.13671875,NaN
1731719376503.9688,-7.32421875,-46.875,-358.88671875,0,NaN
1731719376507.875,-68.359375,-548.33984375,-726.5625,-6.8359375,NaN
1731719376511.7812,-73.73046875,-643.5546875,-908.69140625,-50.29296875,NaN
1731719376515.6875,-13.18359375,-281.73828125,-664.55078125,-41.015625,NaN
1731719376519.5938,9.765625,-118.65234375,-412.109375,14.16015625,NaN
1731719376523.5,-38.0859375,-407.71484375,-588.8671875,25.87890625,NaN
1731719376527.4062,-63.4765625,-861.81640625,-985.3515625,-8.30078125,NaN
1731719376531.3125,-20.5078125,-843.26171875,-984.375,-34.66796875,NaN
1731719376535.2188,5.37109375,-452.1484375,-692.3828125,-20.99609375,NaN
1731719376539.125,-37.109375,-801.26953125,-864.74609375,-3.41796875,NaN
1731719376543.0312,-85.44921875,-869.62890625,-964.35546875,-42.48046875,NaN
1731719376546.9375,-53.7109375,-509.765625,-864.74609375,-52.734375,NaN
1731719376550.8438,19.53125,-516.6015625,-837.40234375,-8.7890625,NaN
1731719376554.75,-8.7890625,-587.40234375,-773.92578125,2.44140625,NaN
1731719376558.6562,-86.9140625,-456.0546875,-756.8359375,-26.3671875,NaN
1731719376562.5625,-57.12890625,-677.734375,-940.4296875,-53.7109375,NaN
1731719376566.4688,14.6484375,-916.9921875,-1000,-23.4375,NaN
1731719376570.375,2.9296875,-653.80859375,-865.72265625,-14.16015625,NaN
1731719376574.2812,-69.3359375,-766.6015625,-923.33984375,-36.62109375,NaN
1731719376578.1875,-80.56640625,-995.60546875,-1000,-54.6875,NaN
1731719376582.0938,-8.7890625,-1000,-1000,-37.59765625,NaN
1731719376586,10.25390625,-912.59765625,-947.265625,7.8125,NaN
1731719376589.9062,-57.12890625,-324.70703125,-596.6796875,9.27734375,NaN
1731719376593.8125,-95.21484375,-361.328125,-721.6796875,-43.45703125,NaN
1731719376597.7188,-43.45703125,-907.71484375,-1000,-68.359375,NaN
1731719376601.625,13.671875,-603.02734375,-793.45703125,-23.4375,NaN
1731719376605.5312,-22.94921875,-162.109375,-546.38671875,-0.48828125,NaN
1731719376609.4375,-91.30859375,-523.92578125,-858.88671875,-56.15234375,NaN
1731719376613.3438,-67.87109375,-922.36328125,-1000,-75.68359375,NaN
1731719376617.25,4.8828125,-803.22265625,-979.4921875,-29.296875,NaN
1731719376621.1562,-11.71875,-783.69140625,-1000,0.9765625,NaN
1731719376625.0625,-87.40234375,-878.41796875,-1000,-22.94921875,NaN
1731719376628.9688,-79.58984375,-968.26171875,-992.67578125,-43.9453125,NaN
1731719376632.875,-15.625,-1000,-1000,-28.3203125,NaN
1731719376636.7812,-9.27734375,-549.8046875,-869.62890625,-13.18359375,NaN
1731719376640.6875,-76.66015625,-457.03125,-798.33984375,-41.50390625,NaN
1731719376644.5938,-100.5859375,-969.23828125,-1000,-57.6171875,NaN
1731719376648.5,-34.1796875,-829.1015625,-1000,-62.98828125,NaN
1731719376652.4062,15.625,-525.390625,-920.8984375,-24.90234375,NaN
1731719376656.3125,-42.48046875,-830.078125,-970.21484375,-1.953125,NaN
1731719376660.2188,-90.8203125,-1000,-1000,-46.38671875,NaN
1731719376664.125,-46.875,-966.30859375,-995.60546875,-68.359375,NaN
1731719376668.0312,-6.34765625,-994.140625,-1000,-48.828125,NaN
1731719376671.9375,-45.8984375,-1000,-1000,-35.64453125,NaN
1731719376675.8438,-106.93359375,-998.53515625,-1000,-65.4296875,NaN
1731719376679.75,-81.0546875,-1000,-1000,-87.890625,NaN
1731719376683.6562,-10.25390625,-995.60546875,-1000,-48.828125,NaN
1731719376687.5625,-22.94921875,-994.62890625,-1000,-32.71484375,NaN
1731719376691.4688,-97.16796875,-1000,-1000,-63.96484375,NaN
1731719376695.375,-103.515625,-1000,-1000,-96.6796875,NaN
1731719376699.2812,-39.0625,-1000,-1000,-83.49609375,NaN
1731719376703.1875,-21.484375,-1000,-1000,-49.8046875,NaN
1731719376707.0938,-91.30859375,-1000,-1000,-67.87109375,NaN
1731719376711,-115.72265625,-1000,-1000,-89.35546875,NaN
1731719376714.9062,-38.0859375,-1000,-1000,-74.21875,NaN
1731719376718.8125,1.953125,-1000,-1000,-34.66796875,NaN
1731719376722.7188,-61.5234375,-1000,-1000,-29.78515625,NaN
1731719376726.625,-112.79296875,-1000,-1000,-88.8671875,NaN
1731719376730.5312,-65.91796875,-1000,-1000,-95.21484375,NaN
1731719376734.4375,-11.23046875,-1000,-1000,-54.19921875,NaN
1731719376738.3438,-40.0390625,-1000,-1000,-34.66796875,NaN
1731719376742.25,-88.37890625,-1000,-1000,-53.22265625,NaN
1731719376746.1562,-70.3125,-1000,-1000,-69.82421875,NaN
1731719376750.0625,-11.23046875,-1000,-1000,-48.828125,NaN
1731719376753.9688,-18.5546875,-1000,-1000,-35.15625,NaN
1731719376757.875,-84.9609375,-1000,-1000,-57.6171875,NaN
1731719376761.7812,-88.8671875,-1000,-1000,-74.70703125,NaN
1731719376765.6875,-21.97265625,-1000,-1000,-52.734375,NaN
1731719376769.5938,3.90625,-1000,-1000,-20.5078125,NaN
1731719376773.5,-56.15234375,-1000,-1000,-35.64453125,NaN
1731719376777.4062,-90.33203125,-1000,-1000,-77.1484375,NaN
1731719376781.3125,-26.3671875,-1000,-1000,-67.87109375,NaN
1731719376785.2188,-0.48828125,-1000,-1000,-43.9453125,NaN
1731719376789.125,-58.59375,-1000,-1000,-42.48046875,NaN
1731719376793.0312,-91.30859375,-995.1171875,-1000,-41.50390625,NaN
1731719376796.9375,-39.55078125,-1000,-1000,-47.36328125,NaN
1731719376800.8438,18.5546875,-986.328125,-1000,-42.48046875,NaN
1731719376804.75,-9.765625,-911.62109375,-1000,-14.16015625,NaN
1731719376808.6562,-63.96484375,-963.8671875,-1000,-18.5546875,NaN
1731719376812.5625,-43.45703125,-1000,-1000,-34.66796875,NaN
1731719376816.4688,13.671875,-959.9609375,-1000,-17.08984375,NaN
1731719376820.375,12.20703125,-788.0859375,-1000,7.32421875,NaN
1731719376824.2812,-50.29296875,-931.15234375,-1000,7.8125,NaN
1731719376828.1875,-75.68359375,-1000,-1000,-18.06640625,NaN
1731719376832.0938,-2.9296875,-969.23828125,-1000,-25.87890625,NaN
1731719376836,34.66796875,-899.4140625,-1000,7.32421875,NaN
1731719376839.9062,-25.390625,-917.96875,-1000,15.13671875,NaN
1731719376843.8125,-59.08203125,-860.83984375,-1000,-23.4375,NaN
1731719376847.7188,-14.6484375,-739.2578125,-1000,-43.9453125,NaN
1731719376851.625,9.765625,-645.5078125,-1000,-6.34765625,NaN
1731719376855.5312,-28.80859375,-890.625,-1000,16.6015625,NaN
1731719376859.4375,-78.125,-1000,-1000,-21.97265625,NaN
1731719376863.3438,-62.5,-799.8046875,-992.1875,-44.43359375,NaN
1731719376867.25,0.48828125,-799.8046875,-1000,-20.5078125,NaN
1731719376871.1562,-17.578125,-924.8046875,-982.91015625,-7.8125,NaN
1731719376875.0625,-91.796875,-533.69140625,-853.02734375,-44.43359375,NaN
1731719376878.9688,-68.84765625,-472.16796875,-931.15234375,-55.6640625,NaN
1731719376882.875,14.16015625,-894.53125,-1000,-19.53125,NaN
1731719376886.7812,2.9296875,-790.52734375,-890.625,4.8828125,NaN
1731719376890.6875,-65.91796875,-390.625,-750.48828125,-12.6953125,NaN
1731719376894.5938,-69.3359375,-578.61328125,-925.29296875,-46.875,NaN
1731719376898.5,-15.13671875,-913.57421875,-1000,-26.85546875,NaN
