time,TP9,AF7,AF8,TP10,AUX
1731719252182,-106.4453125,-877.44140625,-1000,-96.19140625,NaN
1731719252185.9062,-70.80078125,-799.8046875,-996.58203125,-117.1875,NaN
1731719252189.8125,-10.7421875,-715.8203125,-987.79296875,-63.4765625,NaN
1731719252193.7188,-30.2734375,-844.23828125,-994.62890625,-48.828125,NaN
1731719252197.625,-98.6328125,-1000,-1000,-90.8203125,NaN
1731719252201.5312,-71.77734375,-998.046875,-1000,-106.93359375,NaN
1731719252205.4375,1.953125,-977.05078125,-999.51171875,-80.56640625,NaN
1731719252209.3438,-4.8828125,-973.14453125,-997.0703125,-38.57421875,NaN
1731719252213.25,-67.3828125,-964.84375,-1000,-59.08203125,NaN
1731719252217.1562,-81.0546875,-788.57421875,-994.62890625,-97.16796875,NaN
1731719252221.0625,0.48828125,-679.6875,-971.19140625,-62.01171875,NaN
1731719252224.9688,27.34375,-631.34765625,-844.7265625,-20.99609375,NaN
1731719252228.875,-42.96875,-416.50390625,-666.50390625,-56.640625,NaN
1731719252232.7812,-61.5234375,-436.5234375,-779.78515625,-90.8203125,NaN
1731719252236.6875,-6.8359375,-848.14453125,-1000,-72.75390625,NaN
1731719252240.5938,49.31640625,-774.90234375,-859.375,-54.6875,NaN
1731719252244.5,24.90234375,-320.80078125,-590.33203125,-32.71484375,NaN
1731719252248.4062,-38.0859375,-700.1953125,-848.14453125,-45.41015625,NaN
1731719252252.3125,-5.37109375,-1000,-1000,-71.77734375,NaN
1731719252256.2188,68.84765625,-1000,-1000,-40.52734375,NaN
1731719252260.125,48.828125,-738.28125,-839.35546875,-18.5546875,NaN
1731719252264.0312,-14.6484375,-473.14453125,-735.83984375,-53.22265625,NaN
1731719252267.9375,2.44140625,-832.03125,-978.515625,-60.05859375,NaN
1731719252271.8438,72.265625,-854.00390625,-952.63671875,-49.31640625,NaN
1731719252275.75,70.3125,-375,-604.98046875,-27.83203125,NaN
1731719252279.6562,9.765625,-372.0703125,-612.79296875,-24.4140625,NaN
1731719252283.5625,2.44140625,-787.109375,-959.47265625,-57.12890625,NaN
1731719252287.4688,57.12890625,-631.8359375,-829.58984375,-64.453125,NaN
1731719252291.375,62.5,-353.02734375,-586.9140625,-33.203125,NaN
1731719252295.2812,-8.7890625,-634.27734375,-746.58203125,-41.9921875,NaN
1731719252299.1875,-44.921875,-982.421875,-994.140625,-65.4296875,NaN
1731719252303.0938,8.7890625,-729.4921875,-863.76953125,-71.77734375,NaN
1731719252307,63.4765625,-140.625,-465.8203125,-62.01171875,NaN
1731719252310.9062,14.6484375,-125.48828125,-347.65625,-50.29296875,NaN
1731719252314.8125,-38.57421875,-582.51953125,-719.23828125,-76.171875,NaN
1731719252318.7188,-3.90625,-541.9921875,-795.41015625,-86.9140625,NaN
1731719252322.625,76.171875,-129.39453125,-468.75,-49.8046875,NaN
1731719252326.5312,64.94140625,-164.55078125,-388.671875,-19.04296875,NaN
1731719252330.4375,-14.6484375,-597.65625,-737.3046875,-48.33984375,NaN
1731719252334.3438,-11.23046875,-546.38671875,-816.89453125,-70.3125,NaN
1731719252338.25,59.5703125,-91.796875,-420.41015625,-28.80859375,NaN
1731719252342.1562,73.2421875,-428.7109375,-564.453125,-2.44140625,NaN
1731719252346.0625,5.859375,-790.52734375,-829.1015625,-18.06640625,NaN
1731719252349.9688,-16.6015625,-273.4375,-494.140625,-66.89453125,NaN
1731719252353.875,57.12890625,-37.59765625,-365.72265625,-55.6640625,NaN
1731719252357.7812,99.12109375,-309.5703125,-506.8359375,-12.6953125,NaN
1731719252361.6875,13.671875,-258.30078125,-386.23046875,-19.53125,NaN
1731719252365.5938,-64.453125,36.1328125,-233.3984375,-51.7578125,NaN
1731719252369.5,-12.6953125,-147.94921875,-416.50390625,-61.03515625,NaN
1731719252373.4062,46.875,-593.75,-706.0546875,-36.62109375,NaN
1731719252377.3125,-8.30078125,-510.25390625,-611.328125,-44.43359375,NaN
1731719252381.2188,-78.61328125,-127.44140625,-352.5390625,-67.3828125,NaN
1731719252385.125,-45.41015625,-288.0859375,-569.82421875,-76.171875,NaN
1731719252389.0312,27.83203125,-591.30859375,-766.6015625,-70.80078125,NaN
1731719252392.9375,6.34765625,-389.6484375,-500.48828125,-54.6875,NaN
1731719252396.8438,-85.44921875,64.94140625,-166.9921875,-84.9609375,NaN
1731719252400.75,-74.21875,-143.06640625,-428.7109375,-106.93359375,NaN
1731719252404.6562,0,-686.03515625,-834.47265625,-80.078125,NaN
1731719252408.5625,-1.953125,-486.328125,-637.20703125,-55.6640625,NaN
1731719252412.4688,-62.01171875,-55.17578125,-347.65625,-84.47265625,NaN
1731719252416.375,-94.7265625,-334.47265625,-605.95703125,-112.79296875,NaN
1731719252420.2812,-28.3203125,-582.51953125,-826.66015625,-89.84375,NaN
1731719252424.1875,11.71875,-18.5546875,-286.1328125,-40.52734375,NaN
1731719252428.0938,-43.9453125,69.82421875,-84.9609375,-38.0859375,NaN
1731719252432,-84.47265625,-665.52734375,-721.6796875,-88.8671875,NaN
1731719252435.9062,-41.015625,-846.19140625,-902.83203125,-91.796875,NaN
1731719252439.8125,21.484375,-350.09765625,-489.74609375,-62.01171875,NaN
1731719252443.7188,-3.90625,58.10546875,-173.828125,-49.31640625,NaN
1731719252447.625,-68.84765625,-454.58984375,-581.54296875,-66.89453125,NaN
1731719252451.5312,-54.6875,-895.99609375,-969.7265625,-69.3359375,NaN
1731719252455.4375,6.8359375,-242.67578125,-494.62890625,-58.59375,NaN
1731719252459.3438,-9.27734375,164.0625,-104.4921875,-46.38671875,NaN
1731719252463.25,-80.078125,-233.88671875,-383.30078125,-41.9921875,NaN
1731719252467.1562,-69.82421875,-404.78515625,-572.265625,-75.1953125,NaN
1731719252471.0625,-20.01953125,-125,-442.87109375,-89.84375,NaN
1731719252474.9688,-21.484375,14.6484375,-269.53125,-72.75390625,NaN
1731719252478.875,-79.58984375,21.484375,-166.50390625,-85.44921875,NaN
1731719252482.7812,-114.74609375,-342.7734375,-524.4140625,-112.79296875,NaN
1731719252486.6875,-52.734375,-600.5859375,-798.828125,-106.4453125,NaN
1731719252490.5938,-3.90625,-438.96484375,-628.41796875,-84.47265625,NaN
1731719252494.5,-41.9921875,-678.7109375,-729.00390625,-64.453125,NaN
1731719252498.4062,-100.09765625,-882.32421875,-947.265625,-95.703125,NaN
1731719252502.3125,-88.8671875,-135.25390625,-458.984375,-122.55859375,NaN
1731719252506.2188,-26.85546875,121.58203125,-201.66015625,-74.70703125,NaN
1731719252510.125,-44.921875,-148.92578125,-361.328125,-52.24609375,NaN
1731719252514.0312,-116.2109375,-216.30859375,-485.3515625,-101.07421875,NaN
1731719252517.9375,-104.4921875,-279.78515625,-626.953125,-125.9765625,NaN
1731719252521.8438,-24.90234375,-382.8125,-655.2734375,-69.82421875,NaN
1731719252525.75,-17.578125,-197.75390625,-368.1640625,-53.22265625,NaN
1731719252529.6562,-91.796875,-357.91015625,-499.51171875,-106.4453125,NaN
1731719252533.5625,-115.234375,-447.75390625,-686.5234375,-138.671875,NaN
1731719252537.4688,-31.73828125,-500.9765625,-723.6328125,-95.21484375,NaN
1731719252541.375,12.6953125,-904.78515625,-903.80859375,-33.203125,NaN
1731719252545.2812,-76.171875,-363.28125,-515.625,-75.68359375,NaN
1731719252549.1875,-119.140625,-25.390625,-400.390625,-129.39453125,NaN
1731719252553.0938,-41.9921875,-563.96484375,-788.57421875,-106.93359375,NaN
1731719252557,-10.25390625,-682.12890625,-812.98828125,-71.77734375,NaN
1731719252560.9062,-72.265625,-154.296875,-437.5,-49.31640625,NaN
1731719252564.8125,-124.0234375,31.25,-276.85546875,-79.58984375,NaN
1731719252568.7188,-87.40234375,-299.31640625,-614.74609375,-94.7265625,NaN
1731719252572.625,-25.390625,-418.9453125,-737.3046875,-51.7578125,NaN
1731719252576.5312,-42.96875,-473.6328125,-676.7578125,-53.7109375,NaN
1731719252580.4375,-99.609375,-715.8203125,-885.25390625,-107.91015625,NaN
1731719252584.3438,-100.5859375,-923.33984375,-1000,-117.1875,NaN
1731719252588.25,-49.8046875,-701.171875,-854.98046875,-94.23828125,NaN
1731719252592.1562,-38.0859375,40.52734375,-312.98828125,-63.96484375,NaN
1731719252596.0625,-91.796875,110.83984375,-180.17578125,-58.10546875,NaN
1731719252599.9688,-110.83984375,-533.69140625,-753.90625,-103.02734375,NaN
1731719252603.875,-54.19921875,-564.453125,-871.58203125,-110.3515625,NaN
1731719252607.7812,-20.99609375,-24.90234375,-412.109375,-76.171875,NaN
1731719252611.6875,-84.47265625,-290.0390625,-546.38671875,-76.66015625,NaN
1731719252615.5938,-134.765625,-632.8125,-782.2265625,-107.421875,NaN
1731719252619.5,-86.42578125,-400.87890625,-707.03125,-112.79296875,NaN
1731719252623.4062,-22.94921875,-493.1640625,-780.76171875,-68.359375,NaN
1731719252627.3125,-59.5703125,-680.17578125,-768.5546875,-33.203125,NaN
1731719252631.2188,-126.46484375,-916.9921875,-981.93359375,-87.40234375,NaN
1731719252635.125,-110.83984375,-623.046875,-926.26953125,-154.296875,NaN
1731719252639.0312,-36.62109375,-177.734375,-567.3828125,-100.5859375,NaN
1731719252642.9375,-49.8046875,-278.80859375,-526.85546875,-52.24609375,NaN
1731719252646.8438,-112.3046875,-384.765625,-612.3046875,-91.30859375,NaN
1731719252650.75,-114.74609375,-204.58984375,-563.96484375,-128.90625,NaN
1731719252654.6562,-54.19921875,-315.4296875,-694.82421875,-101.07421875,NaN
1731719252658.5625,-16.6015625,-700.1953125,-858.88671875,-49.31640625,NaN
1731719252662.4688,-112.3046875,-520.01953125,-676.26953125,-107.421875,NaN
1731719252666.375,-158.69140625,-394.04296875,-685.05859375,-148.4375,NaN
1731719252670.2812,-80.078125,-909.66796875,-994.140625,-102.5390625,NaN
1731719252674.1875,-51.26953125,-1000,-1000,-49.31640625,NaN
1731719252678.0938,-92.28515625,-692.87109375,-797.8515625,-79.1015625,NaN
1731719252682,-140.13671875,-291.015625,-565.91796875,-124.51171875,NaN
1731719252685.9062,-86.42578125,-458.49609375,-762.20703125,-96.19140625,NaN
1731719252689.8125,-14.16015625,-445.80078125,-681.15234375,-87.40234375,NaN
1731719252693.7188,-64.94140625,-237.79296875,-434.08203125,-66.89453125,NaN
1731719252697.625,-120.60546875,-227.5390625,-458.984375,-87.890625,NaN
1731719252701.5312,-112.79296875,-430.6640625,-645.99609375,-131.8359375,NaN
1731719252705.4375,-42.96875,-397.94921875,-576.171875,-79.1015625,NaN
1731719252709.3438,-43.45703125,-64.453125,-249.51171875,-37.109375,NaN
1731719252713.25,-134.27734375,-514.6484375,-624.0234375,-101.07421875,NaN
1731719252717.1562,-121.58203125,-1000,-1000,-126.46484375,NaN
1731719252721.0625,-36.1328125,-935.546875,-958.0078125,-87.890625,NaN
1731719252724.9688,-47.36328125,-439.94140625,-533.203125,-80.56640625,NaN
1731719252728.875,-120.1171875,-7.32421875,-132.32421875,-120.1171875,NaN
1731719252732.7812,-123.53515625,-552.24609375,-606.93359375,-121.09375,NaN
1731719252736.6875,-43.45703125,-812.01171875,-870.1171875,-97.16796875,NaN
1731719252740.5938,-10.25390625,-100.09765625,-257.32421875,-74.70703125,NaN
1731719252744.5,-63.4765625,62.01171875,-76.171875,-43.9453125,NaN
1731719252748.4062,-101.07421875,-578.61328125,-644.53125,-81.54296875,NaN
1731719252752.3125,-65.91796875,-792.96875,-891.11328125,-107.421875,NaN
1731719252756.2188,-10.25390625,-251.46484375,-413.0859375,-81.0546875,NaN
1731719252760.125,-35.15625,-138.18359375,-214.35546875,-61.5234375,NaN
1731719252764.0312,-93.75,-705.56640625,-689.94140625,-75.1953125,NaN
1731719252767.9375,-81.54296875,-946.77734375,-981.93359375,-92.7734375,NaN
1731719252771.8438,-9.27734375,-535.15625,-594.7265625,-71.77734375,NaN
1731719252775.75,8.7890625,-288.0859375,-291.015625,-52.734375,NaN
1731719252779.6562,-60.05859375,-788.0859375,-767.578125,-51.26953125,NaN
1731719252783.5625,-89.84375,-789.0625,-840.8203125,-85.9375,NaN
1731719252787.4688,-16.11328125,-132.32421875,-281.25,-79.58984375,NaN
1731719252791.375,37.109375,-170.8984375,-230.95703125,-37.59765625,NaN
1731719252795.2812,-48.828125,-312.5,-317.87109375,-74.21875,NaN
1731719252799.1875,-121.58203125,-208.984375,-332.51953125,-106.4453125,NaN
1731719252803.0938,-67.3828125,-152.34375,-359.375,-84.47265625,NaN
1731719252807,-15.13671875,-395.01953125,-501.953125,-49.8046875,NaN
1731719252810.9062,-61.5234375,-795.41015625,-737.3046875,-62.98828125,NaN
1731719252814.8125,-130.37109375,-688.4765625,-693.359375,-114.2578125,NaN
1731719252818.7188,-98.14453125,-334.9609375,-530.76171875,-119.140625,NaN
1731719252822.625,-14.16015625,-586.42578125,-733.3984375,-77.63671875,NaN
1731719252826.5312,-42.48046875,-937.98828125,-938.96484375,-57.12890625,NaN
1731719252830.4375,-141.11328125,-591.30859375,-680.17578125,-112.79296875,NaN
1731719252834.3438,-161.1328125,-284.1796875,-533.69140625,-147.94921875,NaN
1731719252838.25,-64.94140625,-631.8359375,-791.9921875,-96.6796875,NaN
1731719252842.1562,-33.203125,-701.66015625,-796.38671875,-67.3828125,NaN
1731719252846.0625,-111.81640625,-388.671875,-612.79296875,-116.69921875,NaN
1731719252849.9688,-140.13671875,-443.359375,-730.46875,-136.71875,NaN
1731719252853.875,-56.640625,-655.76171875,-893.06640625,-88.8671875,NaN
1731719252857.7812,-19.04296875,-730.46875,-843.26171875,-67.87109375,NaN
1731719252861.6875,-94.23828125,-607.91015625,-758.30078125,-74.21875,NaN
1731719252865.5938,-132.32421875,-660.64453125,-863.76953125,-91.796875,NaN
1731719252869.5,-73.73046875,-1000,-1000,-77.63671875,NaN
1731719252873.4062,-18.5546875,-675.29296875,-800.29296875,-34.66796875,NaN
1731719252877.3125,-61.5234375,-173.828125,-544.921875,-46.38671875,NaN
1731719252881.2188,-117.1875,-584.47265625,-822.265625,-96.19140625,NaN
1731719252885.125,-89.84375,-1000,-1000,-104.00390625,NaN
1731719252889.0312,-23.4375,-868.65234375,-949.70703125,-63.4765625,NaN
1731719252892.9375,-25.87890625,-414.55078125,-747.0703125,-52.734375,NaN
1731719252896.8438,-106.93359375,-601.5625,-836.9140625,-66.40625,NaN
1731719252900.75,-120.1171875,-982.421875,-1000,-96.6796875,NaN
1731719252904.6562,-54.19921875,-1000,-1000,-95.703125,NaN
1731719252908.5625,-52.24609375,-806.640625,-937.98828125,-76.171875,NaN
1731719252912.4688,-124.51171875,-658.203125,-865.234375,-97.65625,NaN
1731719252916.375,-155.2734375,-995.60546875,-1000,-137.20703125,NaN
1731719252920.2812,-92.7734375,-709.9609375,-961.9140625,-159.66796875,NaN
1731719252924.1875,-39.0625,-261.71875,-706.0546875,-84.9609375,NaN
1731719252928.0938,-90.8203125,-450.1953125,-760.25390625,-56.15234375,NaN
1731719252932,-149.90234375,-599.12109375,-965.8203125,-128.90625,NaN
1731719252935.9062,-111.81640625,-358.88671875,-865.72265625,-147.94921875,NaN
1731719252939.8125,-46.38671875,-162.109375,-633.7890625,-111.81640625,NaN
1731719252943.7188,-79.1015625,-544.43359375,-769.04296875,-91.30859375,NaN
1731719252947.625,-158.69140625,-777.34375,-1000,-113.76953125,NaN
1731719252951.5312,-125.9765625,-807.12890625,-992.67578125,-118.1640625,NaN
1731719252955.4375,-35.15625,-990.72265625,-991.2109375,-81.0546875,NaN
1731719252959.3438,-43.45703125,-1000,-1000,-49.8046875,NaN
1731719252963.25,-135.7421875,-811.03515625,-930.17578125,-84.9609375,NaN
1731719252967.1562,-147.94921875,-443.84765625,-862.3046875,-116.2109375,NaN
1731719252971.0625,-66.89453125,-438.4765625,-881.8359375,-77.63671875,NaN
1731719252974.9688,-37.59765625,-463.37890625,-781.25,-69.82421875,NaN
1731719252978.875,-97.65625,-334.47265625,-653.3203125,-85.44921875,NaN
1731719252982.7812,-119.62890625,-322.265625,-750,-102.05078125,NaN
1731719252986.6875,-91.30859375,-599.609375,-972.65625,-110.83984375,NaN
1731719252990.5938,-66.89453125,-653.80859375,-913.0859375,-94.23828125,NaN
1731719252994.5,-115.72265625,-456.54296875,-797.8515625,-91.30859375,NaN
1731719252998.4062,-152.34375,-768.5546875,-931.15234375,-122.55859375,NaN
1731719253002.3125,-83.0078125,-1000,-1000,-138.671875,NaN
1731719253006.2188,-32.2265625,-1000,-1000,-87.890625,NaN
1731719253010.125,-102.05078125,-491.69921875,-672.36328125,-79.58984375,NaN
1731719253014.0312,-166.50390625,-257.8125,-626.46484375,-141.11328125,NaN
1731719253017.9375,-149.4140625,-873.046875,-1000,-171.38671875,NaN
1731719253021.8438,-77.63671875,-812.98828125,-971.6796875,-140.625,NaN
1731719253025.75,-66.40625,-243.1640625,-626.46484375,-102.5390625,NaN
1731719253029.6562,-160.64453125,-258.30078125,-647.4609375,-121.58203125,NaN
1731719253033.5625,-177.24609375,-784.66796875,-981.4453125,-154.78515625,NaN
1731719253037.4688,-87.890625,-801.26953125,-1000,-129.39453125,NaN
1731719253041.375,-59.5703125,-572.265625,-960.9375,-102.5390625,NaN
1731719253045.2812,-135.25390625,-855.46875,-992.1875,-102.5390625,NaN
1731719253049.1875,-178.22265625,-1000,-1000,-109.375,NaN
1731719253053.0938,-119.140625,-864.74609375,-999.51171875,-118.1640625,NaN
1731719253057,-52.24609375,-597.65625,-925.29296875,-82.03125,NaN
1731719253060.9062,-105.46875,-818.359375,-931.640625,-90.8203125,NaN
1731719253064.8125,-171.875,-956.54296875,-993.65234375,-154.296875,NaN
1731719253068.7188,-131.8359375,-723.14453125,-1000,-158.203125,NaN
1731719253072.625,-66.89453125,-532.2265625,-886.23046875,-96.6796875,NaN
1731719253076.5312,-81.0546875,-579.58984375,-786.1328125,-66.40625,NaN
1731719253080.4375,-144.53125,-717.7734375,-877.44140625,-120.60546875,NaN
1731719253084.3438,-153.3203125,-511.23046875,-817.3828125,-145.5078125,NaN
1731719253088.25,-98.6328125,-576.171875,-887.6953125,-104.98046875,NaN
1731719253092.1562,-48.33984375,-821.77734375,-941.89453125,-58.10546875,NaN
1731719253096.0625,-99.609375,-973.6328125,-998.046875,-84.47265625,NaN
1731719253099.9688,-150.390625,-852.5390625,-970.703125,-148.4375,NaN
1731719253103.875,-89.35546875,-593.75,-839.84375,-134.765625,NaN
1731719253107.7812,-43.9453125,-763.671875,-902.83203125,-94.23828125,NaN
1731719253111.6875,-111.81640625,-939.94140625,-979.00390625,-75.68359375,NaN
1731719253115.5938,-174.8046875,-974.609375,-995.60546875,-121.58203125,NaN
1731719253119.5,-125.9765625,-822.265625,-922.8515625,-134.765625,NaN
1731719253123.4062,-60.05859375,-789.0625,-912.59765625,-81.0546875,NaN
1731719253127.3125,-98.6328125,-790.0390625,-834.47265625,-85.9375,NaN
1731719253131.2188,-166.50390625,-539.55078125,-698.73046875,-127.9296875,NaN
1731719253135.125,-128.41796875,-746.58203125,-900.390625,-133.30078125,NaN
1731719253139.0312,-51.7578125,-1000,-1000,-95.703125,NaN
1731719253142.9375,-87.890625,-801.7578125,-828.61328125,-75.68359375,NaN
1731719253146.8438,-164.0625,-396.484375,-572.75390625,-105.46875,NaN
1731719253150.75,-140.625,-614.74609375,-815.4296875,-128.90625,NaN
1731719253154.6562,-51.7578125,-930.17578125,-1000,-96.19140625,NaN
1731719253158.5625,-40.0390625,-670.8984375,-771.484375,-53.22265625,NaN
1731719253162.4688,-107.91015625,-432.6171875,-622.0703125,-72.265625,NaN
1731719253166.375,-145.99609375,-632.8125,-811.03515625,-123.046875,NaN
1731719253170.2812,-89.84375,-991.2109375,-1000,-114.74609375,NaN
1731719253174.1875,-42.48046875,-869.140625,-905.2734375,-84.47265625,NaN
1731719253178.0938,-108.3984375,-387.20703125,-592.7734375,-107.421875,NaN
1731719253182,-145.99609375,-555.6640625,-729.00390625,-116.69921875,NaN
1731719253185.9062,-78.61328125,-1000,-1000,-95.703125,NaN
1731719253189.8125,-22.4609375,-839.35546875,-914.55078125,-87.40234375,NaN
1731719253193.7188,-78.125,-268.5546875,-545.41015625,-85.44921875,NaN
1731719253197.625,-154.296875,-568.84765625,-709.47265625,-86.42578125,NaN
1731719253201.5312,-124.0234375,-975.5859375,-1000,-107.91015625,NaN
1731719253205.4375,-54.19921875,-482.91015625,-784.1796875,-112.3046875,NaN
1731719253209.3438,-55.6640625,-176.7578125,-477.5390625,-66.40625,NaN
1731719253213.25,-117.1875,-627.9296875,-777.34375,-73.73046875,NaN
1731719253217.1562,-143.5546875,-836.9140625,-1000,-121.09375,NaN
1731719253221.0625,-79.58984375,-515.13671875,-861.328125,-115.72265625,NaN
1731719253224.9688,-50.78125,-248.53515625,-575.68359375,-91.796875,NaN
1731719253228.875,-112.3046875,-563.96484375,-691.40625,-95.21484375,NaN
1731719253232.7812,-119.140625,-1000,-1000,-116.69921875,NaN
1731719253236.6875,-60.05859375,-933.59375,-980.95703125,-117.67578125,NaN
1731719253240.5938,-29.78515625,-506.34765625,-736.81640625,-89.84375,NaN
1731719253244.5,-68.84765625,-720.703125,-825.1953125,-71.77734375,NaN
1731719253248.4062,-113.28125,-991.69921875,-1000,-86.42578125,NaN
1731719253252.3125,-82.03125,-572.265625,-879.8828125,-108.88671875,NaN
1731719253256.2188,-10.25390625,-347.16796875,-673.828125,-83.0078125,NaN
1731719253260.125,-27.83203125,-448.2421875,-664.0625,-36.1328125,NaN
1731719253264.0312,-105.46875,-246.58203125,-521.97265625,-73.73046875,NaN
1731719253267.9375,-96.19140625,-85.44921875,-472.65625,-126.46484375,NaN
1731719253271.8438,-8.30078125,-311.5234375,-641.11328125,-76.66015625,NaN
1731719253275.75,-8.7890625,-232.91015625,-438.4765625,-62.98828125,NaN
1731719253279.6562,-93.26171875,-265.625,-426.26953125,-108.88671875,NaN
1731719253283.5625,-92.28515625,-500.9765625,-686.03515625,-135.25390625,NaN
1731719253287.4688,-6.8359375,-624.0234375,-772.4609375,-104.4921875,NaN
1731719253291.375,16.6015625,-1000,-1000,-36.1328125,NaN
1731719253295.2812,-71.77734375,-489.74609375,-606.4453125,-62.5,NaN
1731719253299.1875,-107.91015625,-250.48828125,-511.71875,-110.3515625,NaN
1731719253303.0938,-43.9453125,-639.16015625,-882.32421875,-96.19140625,NaN
1731719253307,-4.39453125,-444.82421875,-642.578125,-58.10546875,NaN
1731719253310.9062,-66.40625,-86.9140625,-258.7890625,-59.5703125,NaN
1731719253314.8125,-127.44140625,-91.30859375,-300.78125,-122.55859375,NaN
1731719253318.7188,-88.37890625,-367.1875,-580.078125,-136.23046875,NaN
1731719253322.625,-19.53125,-134.765625,-330.56640625,-95.21484375,NaN
1731719253326.5312,-28.3203125,33.203125,-91.796875,-67.87109375,NaN
1731719253330.4375,-82.03125,-26.85546875,-132.32421875,-95.21484375,NaN
1731719253334.3438,-69.82421875,-626.953125,-701.171875,-102.5390625,NaN
1731719253338.25,0,-438.4765625,-557.6171875,-81.54296875,NaN
1731719253342.1562,22.94921875,335.44921875,154.78515625,-50.29296875,NaN
1731719253346.0625,-41.50390625,8.30078125,-72.265625,-55.6640625,NaN
1731719253349.9688,-67.87109375,-407.2265625,-498.53515625,-88.8671875,NaN
1731719253353.875,-10.7421875,-188.4765625,-413.57421875,-78.61328125,NaN
1731719253357.7812,9.765625,297.8515625,13.671875,-45.8984375,NaN
1731719253361.6875,-47.8515625,174.31640625,-3.90625,-67.3828125,NaN
1731719253365.5938,-109.86328125,-70.80078125,-240.234375,-129.39453125,NaN
1731719253369.5,-66.40625,-118.65234375,-410.15625,-102.05078125,NaN
1731719253373.4062,0.9765625,-208.984375,-443.359375,-63.96484375,NaN
1731719253377.3125,-44.921875,-444.3359375,-500,-75.68359375,NaN
1731719253381.2188,-126.953125,-721.6796875,-761.71875,-115.72265625,NaN
1731719253385.125,-94.7265625,-157.71484375,-416.015625,-124.51171875,NaN
1731719253389.0312,-24.4140625,227.05078125,-117.1875,-82.51953125,NaN
1731719253392.9375,-76.66015625,-40.0390625,-244.140625,-87.890625,NaN
1731719253396.8438,-150.87890625,-66.89453125,-238.28125,-115.72265625,NaN
1731719253400.75,-140.13671875,-193.359375,-425.78125,-138.671875,NaN
1731719253404.6562,-70.80078125,-40.52734375,-308.59375,-105.95703125,NaN
1731719253408.5625,-40.0390625,-194.3359375,-365.72265625,-62.01171875,NaN
1731719253412.4688,-102.05078125,-415.0390625,-562.5,-74.21875,NaN
1731719253416.375,-136.71875,-117.1875,-385.7421875,-81.54296875,NaN
1731719253420.2812,-63.4765625,-108.88671875,-351.07421875,-90.33203125,NaN
1731719253424.1875,-23.92578125,-481.4453125,-526.85546875,-62.01171875,NaN
1731719253428.0938,-77.63671875,-397.94921875,-406.73828125,-49.31640625,NaN
1731719253432,-127.44140625,406.25,138.671875,-83.984375,NaN
1731719253435.9062,-78.125,226.5625,-88.8671875,-84.47265625,NaN
1731719253439.8125,7.32421875,38.57421875,-207.51953125,-64.453125,NaN
1731719253443.7188,-22.94921875,425.78125,168.9453125,-51.26953125,NaN
1731719253447.625,-100.5859375,445.3125,131.8359375,-70.3125,NaN
1731719253451.5312,-86.9140625,53.7109375,-266.11328125,-84.47265625,NaN
1731719253455.4375,-0.48828125,10.7421875,-243.65234375,-54.6875,NaN
1731719253459.3438,-2.9296875,85.9375,-116.69921875,-39.0625,NaN
1731719253463.25,-90.33203125,42.48046875,-218.26171875,-65.4296875,NaN
1731719253467.1562,-83.0078125,-477.05078125,-663.0859375,-94.7265625,NaN
1731719253471.0625,-18.06640625,-1000,-1000,-77.1484375,NaN
1731719253474.9688,-20.01953125,-389.16015625,-546.38671875,-51.26953125,NaN
1731719253478.875,-88.8671875,208.0078125,-155.76171875,-57.12890625,NaN
1731719253482.7812,-119.140625,-415.0390625,-646.484375,-89.35546875,NaN
1731719253486.6875,-58.10546875,-581.0546875,-809.08203125,-94.7265625,NaN
1731719253490.5938,-8.30078125,102.05078125,-275.87890625,-46.875,NaN
1731719253494.5,-63.96484375,199.70703125,-134.765625,-39.0625,NaN
1731719253498.4062,-129.39453125,-197.75390625,-497.0703125,-81.0546875,NaN
1731719253502.3125,-99.609375,-297.8515625,-658.203125,-97.65625,NaN
1731719253506.2188,-35.15625,150.87890625,-274.4140625,-80.56640625,NaN
1731719253510.125,-49.8046875,109.86328125,-213.8671875,-64.94140625,NaN
1731719253514.0312,-103.515625,-549.31640625,-748.046875,-71.77734375,NaN
1731719253517.9375,-83.0078125,-878.90625,-1000,-83.0078125,NaN
1731719253521.8438,-13.671875,-707.51953125,-906.25,-70.3125,NaN
1731719253525.75,-13.18359375,-324.70703125,-596.6796875,-53.7109375,NaN
1731719253529.6562,-73.73046875,-652.34375,-758.7890625,-54.19921875,NaN
1731719253533.5625,-87.40234375,-814.94140625,-937.01171875,-79.1015625,NaN
1731719253537.4688,-23.4375,1.46484375,-420.8984375,-68.359375,NaN
1731719253541.375,21.97265625,145.5078125,-220.703125,-18.5546875,NaN
1731719253545.2812,-48.828125,-229.4921875,-497.0703125,-40.0390625,NaN
1731719253549.1875,-100.5859375,-169.43359375,-521.97265625,-83.49609375,NaN
1731719253553.0938,-23.92578125,-69.3359375,-508.30078125,-81.54296875,NaN
1731719253557,11.23046875,-285.64453125,-669.921875,-35.64453125,NaN
1731719253560.9062,-42.48046875,-674.31640625,-877.9296875,-20.01953125,NaN
1731719253564.8125,-87.890625,-601.5625,-844.7265625,-80.56640625,NaN
1731719253568.7188,-69.82421875,-219.7265625,-666.015625,-112.79296875,NaN
1731719253572.625,-10.7421875,-518.06640625,-799.8046875,-71.77734375,NaN
1731719253576.5312,-40.0390625,-1000,-1000,-38.0859375,NaN
1731719253580.4375,-124.51171875,-529.78515625,-772.94921875,-83.984375,NaN
1731719253584.3438,-124.51171875,-51.26953125,-504.39453125,-122.55859375,NaN
1731719253588.25,-62.01171875,-433.59375,-780.2734375,-100.09765625,NaN
1731719253592.1562,-64.94140625,-462.890625,-757.32421875,-70.3125,NaN
1731719253596.0625,-138.671875,-112.3046875,-460.44921875,-105.46875,NaN
1731719253599.9688,-155.2734375,-303.22265625,-676.26953125,-150.390625,NaN
1731719253603.875,-93.75,-569.3359375,-882.8125,-128.90625,NaN
1731719253607.7812,-61.5234375,-805.17578125,-973.6328125,-94.23828125,NaN
1731719253611.6875,-110.83984375,-603.02734375,-775.87890625,-90.8203125,NaN
1731719253615.5938,-145.5078125,-330.56640625,-620.1171875,-117.67578125,NaN
1731719253619.5,-89.35546875,-858.88671875,-982.91015625,-129.8828125,NaN
1731719253623.4062,-54.19921875,-657.2265625,-757.8125,-107.421875,NaN
1731719253627.3125,-100.5859375,-65.4296875,-345.703125,-101.07421875,NaN
1731719253631.2188,-147.94921875,-679.6875,-795.8984375,-133.7890625,NaN
1731719253635.125,-113.76953125,-974.609375,-1000,-153.80859375,NaN
1731719253639.0312,-47.36328125,-397.94921875,-666.015625,-125.9765625,NaN
1731719253642.9375,-58.59375,29.78515625,-265.13671875,-85.9375,NaN
1731719253646.8438,-131.8359375,-393.06640625,-565.91796875,-89.84375,NaN
1731719253650.75,-135.25390625,-735.83984375,-913.0859375,-111.81640625,NaN
1731719253654.6562,-55.6640625,-590.8203125,-816.40625,-93.26171875,NaN
1731719253658.5625,-45.41015625,-239.2578125,-456.0546875,-83.0078125,NaN
1731719253662.4688,-109.375,-346.19140625,-499.51171875,-102.05078125,NaN
1731719253666.375,-125.9765625,-914.55078125,-987.79296875,-135.7421875,NaN
1731719253670.2812,-90.33203125,-415.52734375,-715.8203125,-132.8125,NaN
1731719253674.1875,-68.84765625,151.85546875,-223.14453125,-91.30859375,NaN
1731719253678.0938,-128.90625,-261.71875,-504.8828125,-93.75,NaN
1731719253682,-188.96484375,-655.76171875,-990.72265625,-133.30078125,NaN
1731719253685.9062,-132.32421875,-720.703125,-969.7265625,-131.34765625,NaN
1731719253689.8125,-59.5703125,-1000,-996.58203125,-83.0078125,NaN
1731719253693.7188,-94.23828125,-973.6328125,-1000,-78.61328125,NaN
1731719253697.625,-170.41015625,-768.5546875,-984.375,-126.46484375,NaN
1731719253701.5312,-143.5546875,-890.625,-991.69921875,-132.32421875,NaN
1731719253705.4375,-69.82421875,-979.4921875,-1000,-108.88671875,NaN
1731719253709.3438,-73.73046875,-919.43359375,-997.0703125,-82.51953125,NaN
1731719253713.25,-145.99609375,-800.78125,-966.30859375,-102.5390625,NaN
1731719253717.1562,-150.390625,-541.015625,-971.6796875,-139.16015625,NaN
1731719253721.0625,-60.546875,-561.5234375,-1000,-103.02734375,NaN
1731719253724.9688,-41.015625,-466.30859375,-832.51953125,-50.29296875,NaN
1731719253728.875,-96.19140625,-244.62890625,-612.3046875,-71.77734375,NaN
1731719253732.7812,-123.53515625,-469.23828125,-900.390625,-124.51171875,NaN
1731719253736.6875,-57.12890625,-676.26953125,-1000,-99.609375,NaN
1731719253740.5938,-4.39453125,-498.046875,-816.89453125,-61.5234375,NaN
1731719253744.5,-54.19921875,-484.375,-778.3203125,-47.36328125,NaN
1731719253748.4062,-104.98046875,-932.6171875,-1000,-62.5,NaN
1731719253752.3125,-52.734375,-1000,-989.74609375,-85.9375,NaN
1731719253756.2188,11.71875,-1000,-1000,-56.15234375,NaN
1731719253760.125,-37.109375,-622.55859375,-820.80078125,-49.8046875,NaN
1731719253764.0312,-121.09375,-190.4296875,-646.484375,-94.23828125,NaN
1731719253767.9375,-116.69921875,-584.47265625,-902.83203125,-131.8359375,NaN
1731719253771.8438,-37.59765625,-528.80859375,-847.16796875,-113.76953125,NaN
1731719253775.75,-36.62109375,-85.9375,-553.22265625,-79.1015625,NaN
1731719253779.6562,-79.1015625,-191.40625,-628.41796875,-85.44921875,NaN
1731719253783.5625,-83.984375,-640.625,-988.76953125,-105.95703125,NaN
1731719253787.4688,-40.0390625,-488.76953125,-895.99609375,-83.49609375,NaN
1731719253791.375,-14.6484375,-59.5703125,-550.78125,-24.90234375,NaN
1731719253795.2812,-68.84765625,-380.37109375,-762.20703125,-44.43359375,NaN
1731719253799.1875,-88.37890625,-905.2734375,-1000,-115.234375,NaN
1731719253803.0938,-30.2734375,-916.9921875,-1000,-112.79296875,NaN
1731719253807,23.92578125,-241.69921875,-674.8046875,-65.91796875,NaN
1731719253810.9062,-16.6015625,30.76171875,-446.77734375,-50.78125,NaN
1731719253814.8125,-94.23828125,-665.52734375,-873.53515625,-77.1484375,NaN
1731719253818.7188,-66.89453125,-710.9375,-1000,-99.609375,NaN
1731719253822.625,-2.44140625,-78.61328125,-665.0390625,-74.70703125,NaN
1731719253826.5312,-23.92578125,-140.625,-582.51953125,-42.96875,NaN
1731719253830.4375,-79.58984375,-408.69140625,-767.578125,-69.3359375,NaN
1731719253834.3438,-75.68359375,-248.046875,-710.9375,-85.9375,NaN
1731719253838.25,1.46484375,-149.90234375,-673.828125,-57.12890625,NaN
1731719253842.1562,4.8828125,-517.578125,-792.48046875,-24.4140625,NaN
1731719253846.0625,-68.84765625,-861.81640625,-961.42578125,-39.0625,NaN
1731719253849.9688,-90.8203125,-407.71484375,-763.18359375,-104.4921875,NaN
1731719253853.875,-36.1328125,-45.8984375,-529.296875,-101.5625,NaN
1731719253857.7812,12.6953125,-519.53125,-770.99609375,-37.109375,NaN
1731719253861.6875,-58.10546875,-637.6953125,-763.18359375,-43.45703125,NaN
1731719253865.5938,-142.08984375,-168.9453125,-528.3203125,-107.91015625,NaN
1731719253869.5,-91.30859375,-207.03125,-665.0390625,-111.81640625,NaN
1731719253873.4062,-20.99609375,-393.06640625,-711.42578125,-49.8046875,NaN
1731719253877.3125,-65.4296875,-357.91015625,-586.42578125,-30.76171875,NaN
1731719253881.2188,-127.44140625,-114.74609375,-465.33203125,-79.58984375,NaN
1731719253885.125,-88.37890625,-174.8046875,-584.9609375,-92.28515625,NaN
1731719253889.0312,-17.08984375,-628.90625,-852.5390625,-58.10546875,NaN
1731719253892.9375,-52.734375,-566.89453125,-677.734375,-52.734375,NaN
1731719253896.8438,-130.859375,-226.5625,-499.51171875,-101.5625,NaN
1731719253900.75,-117.67578125,-378.41796875,-739.2578125,-133.30078125,NaN
1731719253904.6562,-20.5078125,-763.671875,-955.078125,-84.47265625,NaN
1731719253908.5625,2.9296875,-417.96875,-580.56640625,-57.12890625,NaN
1731719253912.4688,-85.9375,67.87109375,-230.95703125,-66.40625,NaN
1731719253916.375,-117.67578125,-530.76171875,-738.28125,-87.40234375,NaN
1731719253920.2812,-49.31640625,-936.03515625,-1000,-103.02734375,NaN
1731719253924.1875,-17.08984375,-356.93359375,-607.91015625,-67.87109375,NaN
1731719253928.0938,-83.49609375,59.08203125,-285.64453125,-83.49609375,NaN
1731719253932,-142.578125,-413.57421875,-656.73828125,-124.51171875,NaN
1731719253935.9062,-83.0078125,-994.140625,-1000,-104.00390625,NaN
1731719253939.8125,-18.06640625,-772.94921875,-901.3671875,-72.75390625,NaN
1731719253943.7188,-64.453125,-333.0078125,-610.3515625,-68.84765625,NaN
1731719253947.625,-122.55859375,-631.34765625,-784.66796875,-72.265625,NaN
1731719253951.5312,-83.984375,-899.90234375,-1000,-80.078125,NaN
1731719253955.4375,-13.18359375,-566.40625,-928.7109375,-61.5234375,NaN
1731719253959.3438,-36.1328125,-286.1328125,-674.31640625,-45.41015625,NaN
1731719253963.25,-111.328125,-637.20703125,-797.8515625,-75.1953125,NaN
1731719253967.1562,-115.234375,-842.7734375,-939.94140625,-96.19140625,NaN
1731719253971.0625,-37.109375,-279.296875,-636.23046875,-82.51953125,NaN
1731719253974.9688,-3.41796875,-201.171875,-515.13671875,-44.43359375,NaN
1731719253978.875,-64.94140625,-598.6328125,-732.91015625,-51.26953125,NaN
1731719253982.7812,-111.328125,-842.28515625,-964.35546875,-97.16796875,NaN
1731719253986.6875,-50.78125,-279.296875,-589.84375,-96.19140625,NaN
1731719253990.5938,9.27734375,376.953125,-23.92578125,-61.5234375,NaN
1731719253994.5,-21.484375,-369.140625,-523.92578125,-48.33984375,NaN
1731719253998.4062,-92.7734375,-768.5546875,-910.64453125,-84.9609375,NaN
1731719254002.3125,-78.61328125,-46.38671875,-469.23828125,-110.3515625,NaN
1731719254006.2188,-8.7890625,-75.68359375,-457.03125,-45.8984375,NaN
1731719254010.125,-42.96875,-198.2421875,-454.1015625,-15.13671875,NaN
1731719254014.0312,-120.1171875,-124.51171875,-449.70703125,-80.078125,NaN
1731719254017.9375,-96.19140625,-127.9296875,-550.78125,-105.46875,NaN
1731719254021.8438,-30.2734375,-297.8515625,-669.43359375,-71.2890625,NaN
1731719254025.75,-36.1328125,-415.0390625,-681.15234375,-50.29296875,NaN
1731719254029.6562,-99.12109375,-474.609375,-694.3359375,-82.03125,NaN
1731719254033.5625,-107.421875,-608.88671875,-863.76953125,-130.859375,NaN
1731719254037.4688,-20.01953125,-754.8828125,-958.0078125,-92.7734375,NaN
1731719254041.375,18.5546875,-982.421875,-999.51171875,-11.71875,NaN
1731719254045.2812,-67.87109375,-518.06640625,-698.2421875,-49.8046875,NaN
1731719254049.1875,-126.46484375,-123.53515625,-514.6484375,-108.88671875,NaN
1731719254053.0938,-57.12890625,-468.75,-830.56640625,-94.7265625,NaN
1731719254057,1.46484375,-245.1171875,-584.9609375,-60.546875,NaN
1731719254060.9062,-62.01171875,106.4453125,-253.90625,-61.03515625,NaN
1731719254064.8125,-124.51171875,-175.78125,-533.203125,-95.703125,NaN
1731719254068.7188,-78.61328125,-440.4296875,-777.83203125,-83.984375,NaN
1731719254072.625,-7.32421875,-218.75,-549.31640625,-60.546875,NaN
1731719254076.5312,-25.390625,-254.39453125,-481.4453125,-57.6171875,NaN
1731719254080.4375,-95.21484375,-607.421875,-783.69140625,-72.265625,NaN
1731719254084.3438,-85.44921875,-812.5,-917.48046875,-76.66015625,NaN
1731719254088.25,-8.30078125,-918.9453125,-963.37890625,-55.6640625,NaN
1731719254092.1562,-3.90625,-357.91015625,-577.1484375,-34.1796875,NaN
1731719254096.0625,-76.66015625,-280.76171875,-550.78125,-38.57421875,NaN
1731719254099.9688,-88.8671875,-840.8203125,-964.84375,-70.80078125,NaN
1731719254103.875,-45.41015625,-716.30859375,-926.26953125,-86.9140625,NaN
1731719254107.7812,-26.85546875,-108.88671875,-432.12890625,-57.12890625,NaN
1731719254111.6875,-72.265625,-236.328125,-438.4765625,-46.875,NaN
1731719254115.5938,-120.1171875,-652.34375,-855.46875,-87.890625,NaN
1731719254119.5,-80.56640625,-470.21484375,-799.8046875,-97.65625,NaN
1731719254123.4062,-19.04296875,-427.734375,-672.36328125,-60.05859375,NaN
1731719254127.3125,-42.96875,-684.08203125,-753.41796875,-46.875,NaN
1731719254131.2188,-118.65234375,-837.890625,-892.578125,-86.9140625,NaN
1731719254135.125,-84.9609375,-270.01953125,-545.41015625,-105.46875,NaN
1731719254139.0312,-6.34765625,-2.44140625,-395.99609375,-58.10546875,NaN
1731719254142.9375,-13.671875,-380.859375,-588.8671875,-21.484375,NaN
1731719254146.8438,-79.1015625,-492.67578125,-651.85546875,-58.10546875,NaN
1731719254150.75,-99.12109375,-223.14453125,-541.9921875,-95.21484375,NaN
1731719254154.6562,-19.53125,-167.96875,-523.4375,-60.05859375,NaN
1731719254158.5625,0.9765625,-508.30078125,-708.984375,-7.32421875,NaN
1731719254162.4688,-61.5234375,-590.33203125,-762.6953125,-20.01953125,NaN
1731719254166.375,-83.49609375,-423.828125,-735.83984375,-62.01171875,NaN
1731719254170.2812,-11.71875,-757.8125,-974.12109375,-58.59375,NaN
1731719254174.1875,32.71484375,-916.9921875,-1000,-24.90234375,NaN
1731719254178.0938,-36.62109375,-702.63671875,-808.10546875,-31.73828125,NaN
1731719254182,-98.14453125,-240.72265625,-522.94921875,-83.984375,NaN
1731719254185.9062,-43.9453125,-358.3984375,-684.5703125,-76.171875,NaN
1731719254189.8125,15.13671875,-598.14453125,-856.93359375,-30.2734375,NaN
1731719254193.7188,-25.87890625,-293.9453125,-558.59375,-16.6015625,NaN
1731719254197.625,-85.44921875,-160.64453125,-507.32421875,-50.29296875,NaN
1731719254201.5312,-51.7578125,-662.109375,-878.90625,-54.6875,NaN
1731719254205.4375,8.30078125,-811.5234375,-920.41015625,-33.203125,NaN
1731719254209.3438,-12.20703125,-219.23828125,-481.93359375,-36.62109375,NaN
1731719254213.25,-82.03125,-160.64453125,-470.703125,-61.03515625,NaN
1731719254217.1562,-85.9375,-785.64453125,-917.48046875,-85.9375,NaN
1731719254221.0625,4.8828125,-1000,-1000,-38.0859375,NaN
1731719254224.9688,14.16015625,-382.32421875,-581.54296875,-18.06640625,NaN
1731719254228.875,-59.5703125,-143.5546875,-505.37109375,-49.31640625,NaN
1731719254232.7812,-82.03125,-766.6015625,-951.66015625,-62.5,NaN
1731719254236.6875,-33.203125,-907.2265625,-996.09375,-57.6171875,NaN
1731719254240.5938,10.25390625,-540.0390625,-833.984375,-36.62109375,NaN
1731719254244.5,-39.55078125,-386.71875,-708.984375,-36.1328125,NaN
1731719254248.4062,-90.8203125,-726.5625,-866.2109375,-62.98828125,NaN
1731719254252.3125,-53.22265625,-847.65625,-984.375,-74.21875,NaN
1731719254256.2188,12.6953125,-543.45703125,-902.83203125,-28.3203125,NaN
1731719254260.125,-24.4140625,-652.83203125,-918.9453125,-15.13671875,NaN
1731719254264.0312,-94.7265625,-912.109375,-959.9609375,-57.12890625,NaN
1731719254267.9375,-67.3828125,-923.828125,-1000,-59.5703125,NaN
1731719254271.8438,-5.37109375,-346.19140625,-697.265625,-40.0390625,NaN
1731719254275.75,-7.8125,-239.2578125,-550.29296875,-20.01953125,NaN
1731719254279.6562,-71.77734375,-764.6484375,-934.08203125,-40.52734375,NaN
1731719254283.5625,-95.21484375,-785.64453125,-1000,-77.63671875,NaN
1731719254287.4688,-40.52734375,-456.0546875,-882.8125,-62.01171875,NaN
1731719254291.375,-4.39453125,-414.55078125,-733.88671875,-37.109375,NaN
1731719254295.2812,-68.84765625,-709.9609375,-888.671875,-52.24609375,NaN
1731719254299.1875,-109.375,-635.25390625,-925.78125,-72.75390625,NaN
1731719254303.0938,-55.6640625,-428.22265625,-854.4921875,-66.89453125,NaN
1731719254307,-13.18359375,-618.1640625,-904.78515625,-39.0625,NaN
1731719254310.9062,-60.546875,-979.4921875,-1000,-33.69140625,NaN
1731719254314.8125,-120.1171875,-1000,-1000,-68.84765625,NaN
1731719254318.7188,-82.51953125,-824.21875,-947.75390625,-80.56640625,NaN
1731719254322.625,-10.25390625,-703.125,-894.53125,-44.43359375,NaN
1731719254326.5312,-38.0859375,-971.19140625,-984.375,-20.5078125,NaN
1731719254330.4375,-104.00390625,-558.59375,-743.1640625,-71.2890625,NaN
1731719254334.3438,-86.42578125,-217.28515625,-593.26171875,-103.02734375,NaN
1731719254338.25,-18.5546875,-431.640625,-764.16015625,-65.4296875,NaN
1731719254342.1562,-16.11328125,-272.94921875,-568.359375,-24.90234375,NaN
1731719254346.0625,-89.84375,-175.78125,-496.58203125,-43.9453125,NaN
1731719254349.9688,-99.609375,-415.52734375,-786.62109375,-61.03515625,NaN
1731719254353.875,-22.4609375,-667.48046875,-959.47265625,-33.203125,NaN
1731719254357.7812,7.8125,-774.4140625,-918.45703125,-8.7890625,NaN
1731719254361.6875,-52.734375,-603.515625,-771.97265625,-27.34375,NaN
1731719254365.5938,-102.05078125,-666.50390625,-886.23046875,-75.68359375,NaN
1731719254369.5,-51.26953125,-979.98046875,-1000,-78.61328125,NaN
1731719254373.4062,15.625,-848.14453125,-908.203125,-38.57421875,NaN
1731719254377.3125,-38.0859375,-347.16796875,-612.3046875,-36.1328125,NaN
1731719254381.2188,-119.62890625,-509.765625,-777.83203125,-58.59375,NaN
1731719254385.125,-75.1953125,-823.2421875,-1000,-75.68359375,NaN
1731719254389.0312,7.8125,-366.69921875,-682.12890625,-61.03515625,NaN
1731719254392.9375,-14.6484375,27.34375,-332.51953125,-38.0859375,NaN
1731719254396.8438,-84.47265625,-400.390625,-670.8984375,-62.01171875,NaN
1731719254400.75,-82.51953125,-940.4296875,-1000,-87.890625,NaN
1731719254404.6562,-17.08984375,-1000,-1000,-74.21875,NaN
1731719254408.5625,-28.80859375,-706.0546875,-813.4765625,-39.55078125,NaN
1731719254412.4688,-98.14453125,-486.81640625,-643.5546875,-37.59765625,NaN
1731719254416.375,-101.5625,-947.75390625,-1000,-79.1015625,NaN
1731719254420.2812,-42.48046875,-603.515625,-927.734375,-80.078125,NaN
1731719254424.1875,-14.16015625,-46.875,-482.91015625,-39.0625,NaN
1731719254428.0938,-63.96484375,-92.7734375,-387.20703125,-48.33984375,NaN
1731719254432,-108.88671875,-497.55859375,-744.62890625,-79.58984375,NaN
1731719254435.9062,-65.4296875,-520.01953125,-880.859375,-87.40234375,NaN
1731719254439.8125,-5.859375,-174.31640625,-598.14453125,-44.43359375,NaN
1731719254443.7188,-52.24609375,-523.92578125,-727.5390625,-22.4609375,NaN
1731719254447.625,-121.58203125,-620.60546875,-826.171875,-64.453125,NaN
1731719254451.5312,-87.890625,-692.87109375,-928.22265625,-76.171875,NaN
1731719254455.4375,-30.76171875,-719.23828125,-901.3671875,-72.75390625,NaN
1731719254459.3438,-44.921875,-683.59375,-812.5,-60.546875,NaN
1731719254463.25,-111.328125,-744.140625,-888.671875,-83.49609375,NaN
1731719254467.1562,-120.1171875,-361.328125,-767.578125,-111.328125,NaN
1731719254471.0625,-47.36328125,-298.828125,-700.68359375,-86.42578125,NaN
1731719254474.9688,-40.0390625,-278.80859375,-590.33203125,-66.89453125,NaN
1731719254478.875,-124.51171875,-272.4609375,-603.515625,-81.54296875,NaN
1731719254482.7812,-154.78515625,-193.359375,-622.55859375,-109.86328125,NaN
1731719254486.6875,-84.47265625,-424.31640625,-781.73828125,-100.5859375,NaN
1731719254490.5938,-45.8984375,-518.06640625,-723.14453125,-75.1953125,NaN
1731719254494.5,-100.09765625,-130.859375,-453.125,-78.61328125,NaN
1731719254498.4062,-141.11328125,-502.9296875,-770.99609375,-104.4921875,NaN
1731719254502.3125,-95.21484375,-959.9609375,-1000,-101.5625,NaN
1731719254506.2188,-30.76171875,-933.10546875,-976.07421875,-68.84765625,NaN
1731719254510.125,-67.3828125,-326.66015625,-559.08203125,-73.73046875,NaN
1731719254514.0312,-135.25390625,-106.4453125,-497.0703125,-102.5390625,NaN
1731719254517.9375,-99.12109375,-578.125,-910.15625,-99.609375,NaN
1731719254521.8438,-26.3671875,-367.1875,-691.40625,-76.171875,NaN
1731719254525.75,-47.36328125,100.09765625,-262.6953125,-76.171875,NaN
1731719254529.6562,-127.9296875,35.64453125,-310.546875,-99.12109375,NaN
1731719254533.5625,-126.46484375,-519.04296875,-778.80859375,-103.515625,NaN
1731719254537.4688,-53.22265625,-509.765625,-840.8203125,-75.1953125,NaN
1731719254541.375,-39.0625,-92.7734375,-492.67578125,-70.3125,NaN
1731719254545.2812,-110.83984375,-312.98828125,-620.60546875,-97.16796875,NaN
1731719254549.1875,-133.7890625,-840.8203125,-954.58984375,-115.234375,NaN
1731719254553.0938,-71.77734375,-847.16796875,-962.40234375,-91.796875,NaN
1731719254557,-45.41015625,-149.4140625,-540.0390625,-72.75390625,NaN
1731719254560.9062,-99.12109375,-8.7890625,-352.05078125,-87.890625,NaN
1731719254564.8125,-153.3203125,-578.125,-829.1015625,-122.55859375,NaN
1731719254568.7188,-128.41796875,-496.09375,-895.5078125,-134.765625,NaN
1731719254572.625,-56.15234375,-94.7265625,-566.89453125,-96.6796875,NaN
1731719254576.5312,-72.75390625,-344.23828125,-651.3671875,-76.66015625,NaN
1731719254580.4375,-141.11328125,-656.73828125,-908.203125,-114.74609375,NaN
1731719254584.3438,-128.41796875,-626.953125,-1000,-123.53515625,NaN
1731719254588.25,-61.5234375,-358.3984375,-812.01171875,-92.28515625,NaN
1731719254592.1562,-44.921875,-500.48828125,-741.69921875,-55.6640625,NaN
1731719254596.0625,-107.421875,-854.00390625,-950.68359375,-67.3828125,NaN
1731719254599.9688,-136.23046875,-548.33984375,-871.09375,-121.58203125,NaN
1731719254603.875,-71.77734375,-550.78125,-901.3671875,-98.14453125,NaN
1731719254607.7812,-19.04296875,-918.45703125,-1000,-39.55078125,NaN
1731719254611.6875,-87.40234375,-771.97265625,-871.58203125,-68.359375,NaN
1731719254615.5938,-139.16015625,-300.29296875,-662.59765625,-131.34765625,NaN
1731719254619.5,-69.82421875,-247.0703125,-700.1953125,-112.3046875,NaN
1731719254623.4062,-13.671875,-368.65234375,-730.46875,-72.75390625,NaN
1731719254627.3125,-56.640625,-302.24609375,-598.14453125,-59.08203125,NaN
1731719254631.2188,-122.0703125,-315.91796875,-697.265625,-89.35546875,NaN
1731719254635.125,-88.37890625,-506.8359375,-907.2265625,-101.5625,NaN
1731719254639.0312,-23.92578125,-837.40234375,-997.55859375,-72.75390625,NaN
1731719254642.9375,-44.921875,-639.6484375,-778.80859375,-66.40625,NaN
1731719254646.8438,-117.67578125,-26.85546875,-359.86328125,-79.58984375,NaN
1731719254650.75,-110.83984375,86.42578125,-323.73046875,-86.9140625,NaN
1731719254654.6562,-25.87890625,-429.19921875,-669.921875,-53.22265625,NaN
1731719254658.5625,-11.23046875,-396.97265625,-558.10546875,-36.62109375,NaN
1731719254662.4688,-79.58984375,62.5,-228.515625,-66.89453125,NaN
1731719254666.375,-107.421875,-145.01953125,-499.51171875,-86.9140625,NaN
1731719254670.2812,-45.8984375,-516.11328125,-777.83203125,-67.3828125,NaN
1731719254674.1875,-10.25390625,-158.69140625,-453.61328125,-41.50390625,NaN
1731719254678.0938,-72.265625,186.5234375,-222.65625,-58.59375,NaN
1731719254682,-114.2578125,-233.88671875,-550.78125,-76.171875,NaN
1731719254685.9062,-53.22265625,-874.0234375,-1000,-70.80078125,NaN
1731719254689.8125,-2.44140625,-542.48046875,-827.1484375,-33.203125,NaN
1731719254693.7188,-50.78125,14.6484375,-395.01953125,-4.8828125,NaN
1731719254697.625,-100.5859375,-422.36328125,-651.85546875,-49.31640625,NaN
1731719254701.5312,-63.4765625,-974.12109375,-1000,-71.77734375,NaN
1731719254705.4375,3.41796875,-290.0390625,-645.5078125,-67.87109375,NaN
1731719254709.3438,-14.6484375,208.49609375,-185.546875,-44.43359375,NaN
1731719254713.25,-92.28515625,-300.78125,-582.51953125,-60.546875,NaN
1731719254717.1562,-76.171875,-707.03125,-1000,-90.33203125,NaN
1731719254721.0625,-5.37109375,-274.90234375,-616.69921875,-54.19921875,NaN
1731719254724.9688,-4.8828125,167.48046875,-201.66015625,-14.6484375,NaN
1731719254728.875,-70.3125,-474.12109375,-669.921875,-28.3203125,NaN
1731719254732.7812,-104.98046875,-1000,-1000,-76.66015625,NaN
1731719254736.6875,-46.38671875,-692.87109375,-826.66015625,-56.15234375,NaN
1731719254740.5938,-5.859375,53.7109375,-316.40625,-24.90234375,NaN
1731719254744.5,-56.640625,-512.6953125,-659.1796875,-35.64453125,NaN
1731719254748.4062,-107.91015625,-754.8828125,-909.66796875,-73.73046875,NaN
1731719254752.3125,-66.40625,-122.0703125,-541.9921875,-102.5390625,NaN
1731719254756.2188,-1.953125,-107.91015625,-465.8203125,-57.6171875,NaN
1731719254760.125,-34.1796875,-205.078125,-472.65625,-36.62109375,NaN
1731719254764.0312,-112.3046875,-192.3828125,-532.2265625,-63.4765625,NaN
1731719254767.9375,-92.28515625,-173.828125,-617.67578125,-82.51953125,NaN
1731719254771.8438,4.39453125,-349.12109375,-719.7265625,-59.5703125,NaN
1731719254775.75,-4.39453125,-745.1171875,-937.5,-38.0859375,NaN
1731719254779.6562,-85.9375,-869.140625,-980.95703125,-72.75390625,NaN
1731719254783.5625,-90.8203125,-767.08984375,-991.2109375,-92.28515625,NaN
1731719254787.4688,-23.4375,-766.11328125,-990.72265625,-61.03515625,NaN
1731719254791.375,10.7421875,-1000,-1000,-42.48046875,NaN
1731719254795.2812,-79.1015625,-652.34375,-839.84375,-83.984375,NaN
1731719254799.1875,-122.0703125,-231.4453125,-644.04296875,-111.328125,NaN
1731719254803.0938,-43.9453125,-437.01171875,-812.01171875,-90.8203125,NaN
1731719254807,2.9296875,-431.640625,-757.32421875,-48.828125,NaN
1731719254810.9062,-60.546875,-42.96875,-366.2109375,-47.8515625,NaN
1731719254814.8125,-111.81640625,-54.19921875,-415.0390625,-84.9609375,NaN
1731719254818.7188,-58.10546875,-390.625,-742.1875,-92.28515625,NaN
1731719254822.625,10.25390625,-295.8984375,-620.60546875,-56.15234375,NaN
1731719254826.5312,-11.71875,-188.4765625,-436.03515625,-32.2265625,NaN
1731719254830.4375,-95.703125,-502.44140625,-721.19140625,-68.84765625,NaN
1731719254834.3438,-86.9140625,-895.5078125,-996.09375,-79.1015625,NaN
1731719254838.25,-0.9765625,-879.39453125,-965.33203125,-54.19921875,NaN
1731719254842.1562,-10.7421875,-179.19921875,-514.6484375,-42.96875,NaN
1731719254846.0625,-83.0078125,-78.61328125,-421.875,-54.19921875,NaN
1731719254849.9688,-91.30859375,-488.76953125,-800.78125,-79.58984375,NaN
1731719254853.875,-16.6015625,-332.03125,-745.60546875,-57.6171875,NaN
1731719254857.7812,10.7421875,66.89453125,-374.0234375,-22.94921875,NaN
1731719254861.6875,-56.640625,-29.296875,-381.34765625,-30.2734375,NaN
1731719254865.5938,-92.28515625,-507.8125,-825.1953125,-55.17578125,NaN
1731719254869.5,-39.55078125,-366.2109375,-769.04296875,-43.9453125,NaN
1731719254873.4062,19.53125,-373.046875,-716.30859375,-4.39453125,NaN
1731719254877.3125,-19.04296875,-779.78515625,-918.9453125,6.8359375,NaN
1731719254881.2188,-86.9140625,-909.1796875,-982.91015625,-50.78125,NaN
1731719254885.125,-72.265625,-481.4453125,-814.94140625,-86.9140625,NaN
1731719254889.0312,-7.8125,-158.69140625,-539.0625,-53.7109375,NaN
1731719254892.9375,-26.85546875,-397.94921875,-577.1484375,-25.87890625,NaN
1731719254896.8438,-98.6328125,-347.16796875,-577.63671875,-49.31640625,NaN
1731719254900.75,-88.8671875,-125.48828125,-529.296875,-83.0078125,NaN
1731719254904.6562,2.44140625,-57.12890625,-496.58203125,-47.8515625,NaN
1731719254908.5625,22.4609375,-395.01953125,-640.625,-23.4375,NaN
1731719254912.4688,-66.89453125,-391.6015625,-615.72265625,-57.12890625,NaN
1731719254916.375,-96.19140625,-244.140625,-628.41796875,-82.51953125,NaN
1731719254920.2812,-21.97265625,-665.52734375,-960.44921875,-42.96875,NaN
1731719254924.1875,19.53125,-880.37109375,-989.2578125,-3.90625,NaN
1731719254928.0938,-48.828125,-700.1953125,-820.80078125,-36.1328125,NaN
1731719254932,-101.07421875,-262.6953125,-644.53125,-84.9609375,NaN
1731719254935.9062,-43.45703125,-433.10546875,-862.3046875,-80.078125,NaN
1731719254939.8125,17.578125,-436.03515625,-771.484375,-24.4140625,NaN
1731719254943.7188,-9.27734375,-125.9765625,-438.96484375,-12.6953125,NaN
1731719254947.625,-76.66015625,-440.4296875,-741.2109375,-62.98828125,NaN
1731719254951.5312,-68.359375,-796.875,-1000,-75.1953125,NaN
1731719254955.4375,1.46484375,-775.390625,-937.01171875,-45.41015625,NaN
1731719254959.3438,-11.23046875,-384.765625,-648.92578125,-43.9453125,NaN
1731719254963.25,-76.66015625,-315.4296875,-672.8515625,-73.73046875,NaN
1731719254967.1562,-78.125,-867.1875,-985.83984375,-71.77734375,NaN
1731719254971.0625,-25.87890625,-954.1015625,-987.3046875,-31.73828125,NaN
1731719254974.9688,-7.8125,-269.53125,-536.62109375,-22.94921875,NaN
1731719254978.875,-74.21875,43.45703125,-331.54296875,-50.29296875,NaN
1731719254982.7812,-123.53515625,-592.7734375,-805.6640625,-85.9375,NaN
1731719254986.6875,-50.29296875,-712.40234375,-904.78515625,-57.12890625,NaN
1731719254990.5938,20.5078125,-119.140625,-478.515625,-13.18359375,NaN
1731719254994.5,-36.62109375,-93.26171875,-421.875,-21.484375,NaN
1731719254998.4062,-94.23828125,-683.10546875,-854.4921875,-51.7578125,NaN
1731719255002.3125,-44.43359375,-777.34375,-969.23828125,-81.54296875,NaN
1731719255006.2188,11.71875,-503.41796875,-811.03515625,-54.19921875,NaN
1731719255010.125,-32.71484375,-186.5234375,-497.55859375,-17.578125,NaN
1731719255014.0312,-83.984375,-613.28125,-728.02734375,-30.2734375,NaN
1731719255017.9375,-60.546875,-876.46484375,-983.3984375,-63.96484375,NaN
1731719255021.8438,-5.859375,-257.32421875,-650.87890625,-41.9921875,NaN
1731719255025.75,-4.39453125,-101.07421875,-439.453125,-24.4140625,NaN
1731719255029.6562,-72.265625,-549.8046875,-708.984375,-50.78125,NaN
1731719255033.5625,-89.35546875,-659.1796875,-910.64453125,-67.87109375,NaN
1731719255037.4688,-34.66796875,-255.37109375,-645.99609375,-71.2890625,NaN
1731719255041.375,-9.27734375,-279.78515625,-565.91796875,-34.66796875,NaN
1731719255045.2812,-69.82421875,-520.99609375,-720.703125,-38.57421875,NaN
1731719255049.1875,-105.46875,-438.96484375,-701.171875,-77.1484375,NaN
1731719255053.0938,-31.73828125,-257.32421875,-617.67578125,-66.40625,NaN
1731719255057,7.8125,-249.0234375,-539.55078125,-22.94921875,NaN
1731719255060.9062,-69.82421875,-598.6328125,-743.1640625,-39.0625,NaN
1731719255064.8125,-114.2578125,-971.6796875,-997.0703125,-93.75,NaN
1731719255068.7188,-59.08203125,-738.28125,-896.97265625,-91.796875,NaN
1731719255072.625,8.7890625,-578.125,-832.51953125,-32.2265625,NaN
1731719255076.5312,-29.296875,-967.7734375,-980.46875,-5.37109375,NaN
1731719255080.4375,-114.74609375,-649.4140625,-832.51953125,-54.6875,NaN
1731719255084.3438,-92.7734375,-297.36328125,-696.2890625,-88.8671875,NaN
1731719255088.25,-19.53125,-388.671875,-735.3515625,-70.80078125,NaN
1731719255092.1562,-30.76171875,-245.60546875,-534.1796875,-55.6640625,NaN
1731719255096.0625,-114.2578125,-52.24609375,-357.91015625,-83.984375,NaN
1731719255099.9688,-134.765625,-249.0234375,-596.6796875,-101.5625,NaN
1731719255103.875,-55.17578125,-662.59765625,-937.5,-58.10546875,NaN
1731719255107.7812,-14.6484375,-738.76953125,-867.1875,-31.73828125,NaN
1731719255111.6875,-72.75390625,-487.3046875,-644.04296875,-57.12890625,NaN
1731719255115.5938,-108.88671875,-384.765625,-683.59375,-86.42578125,NaN
1731719255119.5,-44.921875,-833.49609375,-964.84375,-66.89453125,NaN
1731719255123.4062,-4.8828125,-832.03125,-881.8359375,-35.15625,NaN
1731719255127.3125,-61.03515625,-150.87890625,-466.796875,-54.19921875,NaN
1731719255131.2188,-109.86328125,-323.73046875,-641.11328125,-94.23828125,NaN
1731719255135.125,-72.75390625,-820.80078125,-1000,-88.8671875,NaN
1731719255139.0312,-6.8359375,-402.83203125,-681.640625,-57.6171875,NaN
1731719255142.9375,-38.0859375,74.21875,-259.27734375,-57.6171875,NaN
1731719255146.8438,-113.76953125,-223.14453125,-530.76171875,-88.37890625,NaN
1731719255150.75,-108.3984375,-583.984375,-902.34375,-94.7265625,NaN
1731719255154.6562,-22.94921875,-615.234375,-913.0859375,-52.734375,NaN
1731719255158.5625,-5.859375,-347.65625,-594.7265625,-29.296875,NaN
1731719255162.4688,-103.515625,-559.08203125,-688.96484375,-60.546875,NaN
1731719255166.375,-136.23046875,-955.56640625,-1000,-94.23828125,NaN
1731719255170.2812,-65.4296875,-480.95703125,-782.71484375,-103.515625,NaN
1731719255174.1875,-23.4375,-256.8359375,-573.2421875,-69.3359375,NaN
1731719255178.0938,-83.984375,-732.91015625,-812.5,-51.26953125,NaN
1731719255182,-126.953125,-795.41015625,-944.82421875,-84.47265625,NaN
1731719255185.9062,-70.80078125,-472.65625,-862.79296875,-100.5859375,NaN
1731719255189.8125,-25.390625,-273.92578125,-632.8125,-59.5703125,NaN
1731719255193.7188,-68.359375,-397.4609375,-622.0703125,-45.8984375,NaN
1731719255197.625,-120.1171875,-585.44921875,-848.14453125,-81.0546875,NaN
1731719255201.5312,-84.9609375,-606.4453125,-905.76171875,-90.33203125,NaN
1731719255205.4375,-12.20703125,-728.02734375,-964.35546875,-59.08203125,NaN
1731719255209.3438,-29.78515625,-924.8046875,-1000,-38.0859375,NaN
1731719255213.25,-110.83984375,-678.22265625,-803.22265625,-80.078125,NaN
1731719255217.1562,-95.703125,-341.30859375,-729.4921875,-109.375,NaN
1731719255221.0625,-8.7890625,-482.91015625,-887.20703125,-84.47265625,NaN
1731719255224.9688,-10.7421875,-408.69140625,-683.59375,-24.4140625,NaN
1731719255228.875,-86.9140625,-201.171875,-511.23046875,-39.0625,NaN
1731719255232.7812,-116.2109375,-430.6640625,-749.0234375,-97.16796875,NaN
1731719255236.6875,-51.26953125,-876.46484375,-1000,-73.2421875,NaN
1731719255240.5938,-9.765625,-671.875,-816.89453125,-41.015625,NaN
1731719255244.5,-82.51953125,-268.06640625,-520.01953125,-66.40625,NaN
1731719255248.4062,-137.20703125,-649.4140625,-809.08203125,-105.95703125,NaN
1731719255252.3125,-87.40234375,-1000,-1000,-105.95703125,NaN
1731719255256.2188,-25.390625,-885.25390625,-947.265625,-59.08203125,NaN
1731719255260.125,-71.77734375,-317.3828125,-555.6640625,-55.17578125,NaN
1731719255264.0312,-136.71875,-3.90625,-378.41796875,-90.8203125,NaN
1731719255267.9375,-117.1875,-489.2578125,-795.8984375,-102.05078125,NaN
1731719255271.8438,-50.78125,-525.87890625,-822.265625,-77.1484375,NaN
1731719255275.75,-58.10546875,117.1875,-270.01953125,-63.96484375,NaN
1731719255279.6562,-122.55859375,121.58203125,-244.140625,-82.51953125,NaN
1731719255283.5625,-125.48828125,-431.15234375,-770.5078125,-102.05078125,NaN
1731719255287.4688,-44.43359375,-498.53515625,-871.58203125,-84.47265625,NaN
1731719255291.375,-9.765625,-277.83203125,-583.49609375,-46.875,NaN
1731719255295.2812,-85.9375,-419.921875,-666.015625,-43.45703125,NaN
1731719255299.1875,-110.83984375,-838.8671875,-954.58984375,-83.49609375,NaN
1731719255303.0938,-43.45703125,-911.1328125,-1000,-84.47265625,NaN
1731719255307,2.44140625,-231.4453125,-598.14453125,-41.015625,NaN
1731719255310.9062,-41.015625,93.75,-283.69140625,-54.6875,NaN
1731719255314.8125,-109.375,-334.9609375,-672.36328125,-93.26171875,NaN
1731719255318.7188,-78.125,-353.515625,-788.57421875,-99.609375,NaN
1731719255322.625,-13.18359375,32.71484375,-436.03515625,-73.73046875,NaN
1731719255326.5312,-20.99609375,-189.453125,-518.5546875,-39.55078125,NaN
1731719255330.4375,-83.49609375,-626.46484375,-883.30078125,-67.3828125,NaN
1731719255334.3438,-84.9609375,-539.55078125,-929.6875,-89.84375,NaN
1731719255338.25,-15.625,-396.97265625,-835.44921875,-62.01171875,NaN
1731719255342.1562,-17.08984375,-674.8046875,-901.3671875,-26.3671875,NaN
1731719255346.0625,-86.9140625,-1000,-1000,-30.76171875,NaN
1731719255349.9688,-100.5859375,-923.828125,-1000,-73.2421875,NaN
1731719255353.875,-36.62109375,-488.76953125,-921.875,-80.56640625,NaN
1731719255357.7812,-22.4609375,-561.5234375,-850.5859375,-46.38671875,NaN
1731719255361.6875,-91.796875,-783.203125,-881.8359375,-45.8984375,NaN
1731719255365.5938,-132.8125,-476.07421875,-825.68359375,-104.00390625,NaN
1731719255369.5,-77.1484375,-365.234375,-837.40234375,-115.72265625,NaN
1731719255373.4062,-27.83203125,-415.0390625,-767.578125,-69.3359375,NaN
1731719255377.3125,-83.984375,-389.6484375,-666.015625,-55.17578125,NaN
1731719255381.2188,-144.04296875,-372.55859375,-718.75,-97.16796875,NaN
1731719255385.125,-105.46875,-288.57421875,-702.63671875,-113.28125,NaN
1731719255389.0312,-30.2734375,-646.97265625,-874.0234375,-87.40234375,NaN
1731719255392.9375,-46.875,-655.2734375,-797.8515625,-63.4765625,NaN
1731719255396.8438,-119.140625,-134.765625,-494.62890625,-77.1484375,NaN
1731719255400.75,-107.91015625,-334.47265625,-742.1875,-104.4921875,NaN
1731719255404.6562,-24.90234375,-920.8984375,-1000,-71.2890625,NaN
1731719255408.5625,-11.23046875,-676.26953125,-752.9296875,-36.62109375,NaN
1731719255412.4688,-84.9609375,-171.38671875,-513.18359375,-62.5,NaN
1731719255416.375,-104.4921875,-519.04296875,-854.4921875,-91.30859375,NaN
1731719255420.2812,-32.71484375,-752.44140625,-991.2109375,-62.5,NaN
1731719255424.1875,-11.23046875,-251.46484375,-568.359375,-41.9921875,NaN
1731719255428.0938,-82.03125,82.51953125,-258.30078125,-50.78125,NaN
1731719255432,-123.53515625,-295.8984375,-609.375,-64.453125,NaN
1731719255435.9062,-59.08203125,-769.04296875,-1000,-53.7109375,NaN
1731719255439.8125,-3.90625,-517.08984375,-757.32421875,-28.3203125,NaN
1731719255443.7188,-45.41015625,40.0390625,-320.80078125,-43.45703125,NaN
1731719255447.625,-104.00390625,-362.79296875,-603.515625,-70.3125,NaN
1731719255451.5312,-83.984375,-961.9140625,-1000,-87.890625,NaN
1731719255455.4375,-24.90234375,-428.7109375,-722.65625,-77.63671875,NaN
1731719255459.3438,-44.43359375,120.1171875,-232.91015625,-41.9921875,NaN
1731719255463.25,-99.12109375,-494.62890625,-625.48828125,-48.33984375,NaN
1731719255467.1562,-87.40234375,-851.5625,-991.2109375,-67.3828125,NaN
1731719255471.0625,-28.3203125,-174.31640625,-569.3359375,-62.5,NaN
1731719255474.9688,-17.578125,64.94140625,-289.0625,-46.38671875,NaN
1731719255478.875,-87.40234375,-561.03515625,-727.05078125,-64.94140625,NaN
1731719255482.7812,-125,-958.0078125,-1000,-103.515625,NaN
1731719255486.6875,-59.5703125,-552.24609375,-827.1484375,-89.84375,NaN
1731719255490.5938,-19.04296875,-18.5546875,-370.1171875,-55.6640625,NaN
1731719255494.5,-75.1953125,-507.8125,-645.99609375,-60.546875,NaN
1731719255498.4062,-117.67578125,-862.3046875,-988.28125,-94.7265625,NaN
1731719255502.3125,-65.4296875,-229.00390625,-633.7890625,-80.078125,NaN
1731719255506.2188,-4.8828125,-99.609375,-478.515625,-35.64453125,NaN
1731719255510.125,-53.7109375,-363.76953125,-604.98046875,-42.96875,NaN
1731719255514.0312,-116.69921875,-259.765625,-562.5,-83.49609375,NaN
1731719255517.9375,-65.4296875,-442.87109375,-758.7890625,-76.66015625,NaN
1731719255521.8438,31.25,-836.9140625,-1000,-28.80859375,NaN
1731719255525.75,7.8125,-743.65234375,-874.51171875,-24.4140625,NaN
1731719255529.6562,-75.1953125,-750,-875.48828125,-55.17578125,NaN
1731719255533.5625,-64.94140625,-713.37890625,-982.421875,-85.44921875,NaN
1731719255537.4688,-6.34765625,-677.734375,-961.9140625,-63.4765625,NaN
1731719255541.375,-5.37109375,-801.7578125,-879.39453125,-9.765625,NaN
1731719255545.2812,-66.89453125,-321.77734375,-565.4296875,-28.80859375,NaN
1731719255549.1875,-98.6328125,-100.09765625,-488.76953125,-75.1953125,NaN
1731719255553.0938,-45.8984375,-424.8046875,-752.9296875,-77.1484375,NaN
1731719255557,1.953125,-314.453125,-599.12109375,-44.921875,NaN
1731719255560.9062,-41.50390625,67.87109375,-252.44140625,-45.41015625,NaN
1731719255564.8125,-91.796875,-80.56640625,-441.40625,-68.359375,NaN
1731719255568.7188,-54.19921875,-442.3828125,-779.296875,-57.12890625,NaN
1731719255572.625,-0.48828125,-364.2578125,-678.7109375,-21.484375,NaN
1731719255576.5312,-46.38671875,-241.69921875,-478.515625,-28.3203125,NaN
1731719255580.4375,-122.0703125,-507.8125,-721.6796875,-83.49609375,NaN
1731719255584.3438,-79.58984375,-934.08203125,-1000,-77.63671875,NaN
1731719255588.25,3.90625,-788.57421875,-869.140625,-41.50390625,NaN
1731719255592.1562,-11.71875,132.8125,-164.0625,-44.921875,NaN
1731719255596.0625,-75.1953125,122.0703125,-198.73046875,-52.734375,NaN
1731719255599.9688,-95.703125,-521.97265625,-848.14453125,-81.0546875,NaN
1731719255603.875,-28.80859375,-352.05078125,-761.23046875,-66.89453125,NaN
1731719255607.7812,11.71875,87.40234375,-321.77734375,-23.92578125,NaN
1731719255611.6875,-42.48046875,-140.13671875,-416.9921875,-33.69140625,NaN
1731719255615.5938,-81.54296875,-667.48046875,-920.41015625,-64.94140625,NaN
1731719255619.5,-40.52734375,-490.72265625,-872.0703125,-68.84765625,NaN
1731719255623.4062,20.01953125,-397.94921875,-693.84765625,-32.2265625,NaN
1731719255627.3125,-32.71484375,-680.17578125,-818.84765625,-10.25390625,NaN
1731719255631.2188,-102.5390625,-913.57421875,-980.46875,-39.0625,NaN
1731719255635.125,-66.89453125,-765.13671875,-979.00390625,-74.70703125,NaN
1731719255639.0312,4.39453125,-185.05859375,-556.15234375,-49.8046875,NaN
1731719255642.9375,-7.8125,-391.6015625,-589.84375,-20.01953125,NaN
1731719255646.8438,-69.3359375,-743.65234375,-867.1875,-46.38671875,NaN
1731719255650.75,-63.96484375,-413.57421875,-767.08984375,-72.265625,NaN
1731719255654.6562,2.9296875,-208.984375,-613.28125,-27.83203125,NaN
1731719255658.5625,-6.34765625,-326.66015625,-605.46875,16.11328125,NaN
1731719255662.4688,-97.16796875,-246.58203125,-520.5078125,-47.36328125,NaN
1731719255666.375,-100.09765625,-273.4375,-628.41796875,-89.35546875,NaN
1731719255670.2812,-18.5546875,-652.34375,-946.77734375,-61.5234375,NaN
1731719255674.1875,0.9765625,-842.28515625,-950.68359375,-22.4609375,NaN
1731719255678.0938,-67.3828125,-651.85546875,-763.18359375,-23.4375,NaN
1731719255682,-107.421875,-156.73828125,-499.51171875,-67.87109375,NaN
1731719255685.9062,-28.80859375,-319.82421875,-707.51953125,-63.96484375,NaN
1731719255689.8125,35.15625,-635.7421875,-878.90625,-14.6484375,NaN
1731719255693.7188,-15.625,-372.55859375,-569.3359375,-12.6953125,NaN
1731719255697.625,-80.078125,-96.19140625,-441.40625,-68.84765625,NaN
1731719255701.5312,-42.96875,-327.1484375,-695.80078125,-59.5703125,NaN
1731719255705.4375,31.25,-633.7890625,-829.1015625,-21.97265625,NaN
1731719255709.3438,0.9765625,-383.30078125,-591.30859375,-29.296875,NaN
1731719255713.25,-63.4765625,-116.2109375,-459.9609375,-37.59765625,NaN
1731719255717.1562,-51.7578125,-685.05859375,-841.30859375,-27.34375,NaN
1731719255721.0625,20.01953125,-883.7890625,-963.37890625,-12.20703125,NaN
1731719255724.9688,16.6015625,-206.0546875,-473.14453125,6.34765625,NaN
1731719255728.875,-67.3828125,12.6953125,-337.890625,-25.390625,NaN
1731719255732.7812,-79.1015625,-588.8671875,-809.08203125,-73.2421875,NaN
1731719255736.6875,-3.90625,-689.94140625,-870.1171875,-62.01171875,NaN
1731719255740.5938,28.3203125,-63.96484375,-408.203125,-14.6484375,NaN
1731719255744.5,-32.2265625,25.390625,-291.50390625,2.44140625,NaN
1731719255748.4062,-76.66015625,-559.08203125,-733.3984375,-40.52734375,NaN
1731719255752.3125,-20.01953125,-586.42578125,-803.7109375,-50.29296875,NaN
1731719255756.2188,41.015625,-14.6484375,-392.578125,-18.06640625,NaN
1731719255760.125,-1.953125,-37.109375,-377.9296875,-11.71875,NaN
1731719255764.0312,-64.94140625,-709.9609375,-835.44921875,-36.1328125,NaN
1731719255767.9375,-38.57421875,-856.93359375,-958.984375,-54.6875,NaN
1731719255771.8438,27.34375,-190.4296875,-556.640625,-24.4140625,NaN
1731719255775.75,19.53125,71.77734375,-293.45703125,-8.30078125,NaN
1731719255779.6562,-58.10546875,-396.97265625,-606.93359375,-52.734375,NaN
1731719255783.5625,-69.82421875,-494.140625,-759.27734375,-84.47265625,NaN
1731719255787.4688,6.34765625,-208.0078125,-620.60546875,-45.8984375,NaN
1731719255791.375,30.76171875,-225.09765625,-559.08203125,18.5546875,NaN
1731719255795.2812,-28.80859375,-398.4375,-640.13671875,1.46484375,NaN
1731719255799.1875,-57.6171875,-491.2109375,-815.91796875,-61.5234375,NaN
1731719255803.0938,0,-343.75,-716.796875,-55.6640625,NaN
1731719255807,47.8515625,-434.08203125,-683.10546875,-17.08984375,NaN
1731719255810.9062,-5.859375,-924.31640625,-944.82421875,-10.7421875,NaN
1731719255814.8125,-65.91796875,-960.44921875,-1000,-50.78125,NaN
1731719255818.7188,-23.92578125,-670.8984375,-973.6328125,-49.31640625,NaN
1731719255822.625,39.55078125,-858.3984375,-1000,-2.44140625,NaN
1731719255826.5312,8.7890625,-791.50390625,-854.4921875,7.32421875,NaN
1731719255830.4375,-65.4296875,-439.94140625,-727.05078125,-37.59765625,NaN
1731719255834.3438,-53.7109375,-587.40234375,-975.09765625,-54.19921875,NaN
1731719255838.25,23.92578125,-873.53515625,-1000,-14.16015625,NaN
1731719255842.1562,16.6015625,-841.796875,-897.4609375,-6.34765625,NaN
1731719255846.0625,-62.5,-493.1640625,-767.08984375,-29.296875,NaN
1731719255849.9688,-74.21875,-669.921875,-955.56640625,-53.22265625,NaN
1731719255853.875,-17.08984375,-874.0234375,-1000,-34.66796875,NaN
1731719255857.7812,6.34765625,-869.62890625,-958.0078125,1.953125,NaN
1731719255861.6875,-41.50390625,-969.23828125,-999.0234375,-16.11328125,NaN
1731719255865.5938,-86.42578125,-982.91015625,-987.3046875,-62.98828125,NaN
1731719255869.5,-30.76171875,-1000,-1000,-60.05859375,NaN
1731719255873.4062,20.99609375,-801.26953125,-874.0234375,-26.85546875,NaN
1731719255877.3125,-37.109375,-253.41796875,-535.64453125,-34.66796875,NaN
1731719255881.2188,-92.28515625,-507.8125,-767.08984375,-55.17578125,NaN
1731719255885.125,-56.640625,-796.875,-983.3984375,-53.7109375,NaN
1731719255889.0312,6.34765625,-375,-692.87109375,-29.296875,NaN
1731719255892.9375,-12.20703125,-67.3828125,-427.24609375,-24.4140625,NaN
1731719255896.8438,-82.51953125,-394.53125,-664.0625,-54.19921875,NaN
1731719255900.75,-71.77734375,-805.6640625,-986.81640625,-69.3359375,NaN
1731719255904.6562,-0.48828125,-857.421875,-1000,-33.69140625,NaN
1731719255908.5625,-7.32421875,-494.140625,-748.53515625,-15.625,NaN
1731719255912.4688,-82.51953125,-372.55859375,-587.890625,-54.6875,NaN
1731719255916.375,-88.8671875,-917.96875,-999.51171875,-84.9609375,NaN
1731719255920.2812,-17.08984375,-735.3515625,-942.87109375,-67.3828125,NaN
1731719255924.1875,1.46484375,-191.89453125,-552.24609375,-41.50390625,NaN
1731719255928.0938,-68.84765625,-522.4609375,-723.6328125,-32.2265625,NaN
1731719255932,-112.3046875,-844.23828125,-965.8203125,-62.5,NaN
1731719255935.9062,-54.19921875,-333.0078125,-711.9140625,-88.8671875,NaN
1731719255939.8125,6.8359375,-117.1875,-512.20703125,-58.59375,NaN
1731719255943.7188,-34.66796875,-249.51171875,-549.31640625,-34.66796875,NaN
1731719255947.625,-93.75,-424.31640625,-722.65625,-69.82421875,NaN
1731719255951.5312,-66.40625,-802.734375,-1000,-96.19140625,NaN
1731719255955.4375,-16.6015625,-519.53125,-724.12109375,-65.91796875,NaN
1731719255959.3438,-40.52734375,-495.60546875,-618.1640625,-28.80859375,NaN
1731719255963.25,-113.76953125,-586.9140625,-679.19921875,-54.19921875,NaN
1731719255967.1562,-115.234375,144.53125,-208.984375,-100.5859375,NaN
1731719255971.0625,-38.57421875,103.515625,-298.828125,-71.2890625,NaN
1731719255974.9688,-28.80859375,-237.79296875,-492.67578125,-39.0625,NaN
1731719255978.875,-90.33203125,-178.7109375,-399.90234375,-61.5234375,NaN
1731719255982.7812,-124.0234375,66.89453125,-297.8515625,-90.8203125,NaN
1731719255986.6875,-60.05859375,-144.53125,-530.76171875,-66.89453125,NaN
1731719255990.5938,-3.41796875,-351.07421875,-585.44921875,-0.9765625,NaN
1731719255994.5,-59.08203125,-33.69140625,-269.53125,-25.87890625,NaN
1731719255998.4062,-111.81640625,-222.16796875,-518.5546875,-76.66015625,NaN
1731719256002.3125,-50.29296875,-730.46875,-933.10546875,-53.7109375,NaN
1731719256006.2188,15.13671875,-813.4765625,-884.27734375,-33.203125,NaN
1731719256010.125,-47.8515625,-208.0078125,-418.45703125,-42.96875,NaN
1731719256014.0312,-105.46875,-67.87109375,-414.55078125,-62.5,NaN
1731719256017.9375,-65.4296875,-485.83984375,-813.4765625,-73.73046875,NaN
1731719256021.8438,6.34765625,-308.10546875,-634.765625,-39.55078125,NaN
1731719256025.75,-6.34765625,176.26953125,-166.9921875,-12.20703125,NaN
1731719256029.6562,-86.9140625,98.14453125,-243.1640625,-54.6875,NaN
1731719256033.5625,-92.28515625,-596.6796875,-757.8125,-81.0546875,NaN
1731719256037.4688,-16.6015625,-610.3515625,-775.87890625,-59.08203125,NaN
1731719256041.375,-11.23046875,33.69140625,-279.78515625,-41.50390625,NaN
1731719256045.2812,-78.61328125,-191.89453125,-435.05859375,-47.8515625,NaN
1731719256049.1875,-96.6796875,-770.99609375,-854.98046875,-58.59375,NaN
1731719256053.0938,-37.59765625,-899.90234375,-985.3515625,-50.29296875,NaN
1731719256057,-6.34765625,-292.96875,-590.33203125,-43.45703125,NaN
1731719256060.9062,-60.546875,-190.91796875,-485.83984375,-47.36328125,NaN
1731719256064.8125,-110.83984375,-697.265625,-916.9921875,-91.30859375,NaN
1731719256068.7188,-73.73046875,-660.64453125,-984.86328125,-99.12109375,NaN
1731719256072.625,-7.32421875,-366.2109375,-782.71484375,-50.78125,NaN
1731719256076.5312,-40.0390625,-575.68359375,-870.1171875,-27.83203125,NaN
1731719256080.4375,-94.7265625,-862.79296875,-1000,-50.78125,NaN
1731719256084.3438,-68.84765625,-716.30859375,-993.65234375,-73.73046875,NaN
1731719256088.25,-5.859375,-507.32421875,-902.83203125,-42.96875,NaN
1731719256092.1562,-2.9296875,-635.25390625,-849.12109375,-16.11328125,NaN
1731719256096.0625,-78.125,-987.3046875,-977.05078125,-47.8515625,NaN
1731719256099.9688,-102.5390625,-903.3203125,-1000,-88.37890625,NaN
1731719256103.875,-18.5546875,-322.75390625,-761.23046875,-68.84765625,NaN
1731719256107.7812,20.5078125,-513.18359375,-772.4609375,-25.87890625,NaN
1731719256111.6875,-56.640625,-781.25,-882.32421875,-19.04296875,NaN
1731719256115.5938,-89.35546875,-476.07421875,-816.89453125,-65.4296875,NaN
1731719256119.5,-24.90234375,-401.3671875,-837.40234375,-79.58984375,NaN
1731719256123.4062,10.7421875,-504.39453125,-816.40625,-16.11328125,NaN
1731719256127.3125,-48.33984375,-459.47265625,-702.1484375,-10.25390625,NaN
1731719256131.2188,-98.6328125,-358.88671875,-707.03125,-74.70703125,NaN
1731719256135.125,-42.96875,-455.56640625,-862.79296875,-97.16796875,NaN
1731719256139.0312,18.06640625,-738.76953125,-949.21875,-50.78125,NaN
1731719256142.9375,-21.484375,-643.5546875,-768.5546875,-20.99609375,NaN
1731719256146.8438,-89.35546875,-354.4921875,-617.67578125,-72.265625,NaN
1731719256150.75,-83.984375,-653.80859375,-913.57421875,-78.61328125,NaN
1731719256154.6562,-7.32421875,-955.078125,-1000,-29.78515625,NaN
1731719256158.5625,-8.30078125,-819.3359375,-867.1875,-22.4609375,NaN
1731719256162.4688,-91.796875,-297.36328125,-578.125,-67.87109375,NaN
1731719256166.375,-101.07421875,-559.5703125,-821.77734375,-104.4921875,NaN
1731719256170.2812,-34.66796875,-776.85546875,-963.8671875,-78.61328125,NaN
1731719256174.1875,-10.25390625,-315.91796875,-631.34765625,-37.59765625,NaN
1731719256178.0938,-80.078125,-153.80859375,-520.01953125,-58.10546875,NaN
1731719256182,-138.18359375,-535.64453125,-812.98828125,-104.98046875,NaN
1731719256185.9062,-80.56640625,-1000,-1000,-93.26171875,NaN
1731719256189.8125,-26.85546875,-773.92578125,-846.6796875,-70.80078125,NaN
1731719256193.7188,-76.171875,-89.35546875,-399.90234375,-67.87109375,NaN
1731719256197.625,-119.62890625,-446.77734375,-644.53125,-79.1015625,NaN
1731719256201.5312,-78.61328125,-889.16015625,-976.5625,-71.77734375,NaN
1731719256205.4375,0.48828125,-570.80078125,-799.31640625,-42.48046875,NaN
1731719256209.3438,-24.4140625,-387.6953125,-665.52734375,-34.66796875,NaN
1731719256213.25,-104.98046875,-651.85546875,-807.12890625,-68.359375,NaN
1731719256217.1562,-82.51953125,-703.61328125,-858.88671875,-102.05078125,NaN
1731719256221.0625,-12.6953125,-180.17578125,-566.89453125,-67.87109375,NaN
1731719256224.9688,-17.08984375,72.265625,-283.69140625,-23.4375,NaN
1731719256228.875,-83.984375,-226.07421875,-494.140625,-41.015625,NaN
1731719256232.7812,-106.4453125,-703.125,-933.10546875,-82.51953125,NaN
1731719256236.6875,-40.52734375,-724.609375,-970.703125,-67.3828125,NaN
1731719256240.5938,-0.48828125,-233.3984375,-572.75390625,-37.59765625,NaN
1731719256244.5,-56.640625,-489.74609375,-636.23046875,-62.01171875,NaN
1731719256248.4062,-105.95703125,-962.40234375,-1000,-94.7265625,NaN
1731719256252.3125,-63.96484375,-514.16015625,-902.34375,-96.6796875,NaN
1731719256256.2188,-10.25390625,-356.93359375,-735.83984375,-59.5703125,NaN
1731719256260.125,-51.26953125,-429.19921875,-711.9140625,-51.7578125,NaN
1731719256264.0312,-121.09375,-625,-833.0078125,-92.7734375,NaN
1731719256267.9375,-91.796875,-678.22265625,-943.359375,-82.03125,NaN
1731719256271.8438,-15.625,-562.98828125,-909.1796875,-40.52734375,NaN
1731719256275.75,-24.4140625,-623.53515625,-794.43359375,-40.0390625,NaN
1731719256279.6562,-106.93359375,-702.63671875,-873.53515625,-69.82421875,NaN
1731719256283.5625,-124.0234375,-621.09375,-907.71484375,-111.81640625,NaN
1731719256287.4688,-40.0390625,-479.98046875,-755.37109375,-74.21875,NaN
1731719256291.375,-23.92578125,-767.578125,-876.46484375,-29.78515625,NaN
1731719256295.2812,-107.91015625,-357.91015625,-596.19140625,-73.73046875,NaN
1731719256299.1875,-136.71875,-246.09375,-653.3203125,-97.16796875,NaN
1731719256303.0938,-57.12890625,-510.25390625,-892.08984375,-65.91796875,NaN
1731719256307,-13.18359375,-39.0625,-375.9765625,-54.19921875,NaN
1731719256310.9062,-68.359375,519.04296875,143.5546875,-84.9609375,NaN
1731719256314.8125,-103.02734375,296.875,-107.91015625,-95.703125,NaN
1731719256318.7188,-52.24609375,-403.80859375,-737.3046875,-83.0078125,NaN
1731719256322.625,-0.9765625,-349.609375,-620.1171875,-52.734375,NaN
1731719256326.5312,-31.73828125,-79.58984375,-282.71484375,-49.31640625,NaN
1731719256330.4375,-89.84375,-231.4453125,-457.03125,-80.56640625,NaN
1731719256334.3438,-58.10546875,-651.85546875,-798.828125,-62.98828125,NaN
1731719256338.25,-2.44140625,-804.6875,-882.8125,-42.96875,NaN
1731719256342.1562,-16.11328125,-0.9765625,-320.80078125,-67.87109375,NaN
1731719256346.0625,-73.73046875,-7.8125,-362.3046875,-77.1484375,NaN
1731719256349.9688,-96.6796875,-377.9296875,-706.54296875,-93.26171875,NaN
1731719256353.875,-45.8984375,-180.6640625,-575.68359375,-68.359375,NaN
1731719256357.7812,-24.4140625,140.625,-274.90234375,-38.0859375,NaN
1731719256361.6875,-83.984375,-216.796875,-512.20703125,-52.734375,NaN
1731719256365.5938,-123.53515625,-628.41796875,-852.5390625,-75.1953125,NaN
1731719256369.5,-55.6640625,-377.9296875,-748.53515625,-75.68359375,NaN
1731719256373.4062,0.48828125,-471.19140625,-792.48046875,-36.1328125,NaN
1731719256377.3125,-47.8515625,-649.90234375,-815.4296875,-11.71875,NaN
1731719256381.2188,-105.46875,-992.67578125,-1000,-34.1796875,NaN
1731719256385.125,-87.40234375,-602.05078125,-801.7578125,-75.68359375,NaN
1731719256389.0312,-12.6953125,145.99609375,-294.921875,-63.4765625,NaN
1731719256392.9375,-20.01953125,-139.16015625,-442.3828125,-35.64453125,NaN
1731719256396.8438,-107.421875,-375.9765625,-612.79296875,-57.12890625,NaN
1731719256400.75,-103.02734375,-56.640625,-445.80078125,-96.19140625,NaN
1731719256404.6562,-18.5546875,77.63671875,-362.3046875,-57.12890625,NaN
1731719256408.5625,-23.92578125,-50.29296875,-347.16796875,-16.11328125,NaN
1731719256412.4688,-104.00390625,-133.7890625,-394.53125,-60.05859375,NaN
1731719256416.375,-108.3984375,-269.04296875,-628.41796875,-80.56640625,NaN
1731719256420.2812,-23.92578125,-648.4375,-956.54296875,-43.9453125,NaN
1731719256424.1875,13.671875,-954.58984375,-1000,-5.859375,NaN
1731719256428.0938,-42.96875,-685.546875,-787.109375,-3.90625,NaN
1731719256432,-80.56640625,-226.5625,-553.22265625,-55.17578125,NaN
1731719256435.9062,-32.2265625,-597.65625,-913.0859375,-74.21875,NaN
1731719256439.8125,17.08984375,-703.125,-877.44140625,-32.71484375,NaN
1731719256443.7188,-39.55078125,-319.82421875,-531.73828125,-22.94921875,NaN
1731719256447.625,-106.93359375,-170.41015625,-520.01953125,-67.3828125,NaN
1731719256451.5312,-75.1953125,-315.4296875,-658.69140625,-71.2890625,NaN
1731719256455.4375,-1.953125,-514.16015625,-805.17578125,-31.25,NaN
1731719256459.3438,-3.90625,-275.87890625,-582.51953125,-27.34375,NaN
1731719256463.25,-79.1015625,-333.984375,-655.2734375,-61.5234375,NaN
1731719256467.1562,-79.1015625,-846.19140625,-975.09765625,-72.75390625,NaN
1731719256471.0625,0.48828125,-1000,-1000,-33.69140625,NaN
1731719256474.9688,-2.44140625,-547.8515625,-741.69921875,-31.25,NaN
1731719256478.875,-72.75390625,-43.45703125,-385.25390625,-62.98828125,NaN
1731719256482.7812,-88.37890625,-407.71484375,-706.54296875,-84.47265625,NaN
1731719256486.6875,-28.3203125,-519.53125,-826.66015625,-56.640625,NaN
1731719256490.5938,3.41796875,-168.45703125,-470.703125,-10.7421875,NaN
1731719256494.5,-58.59375,-201.171875,-458.0078125,-27.83203125,NaN
1731719256498.4062,-104.00390625,-630.859375,-784.66796875,-60.05859375,NaN
1731719256502.3125,-50.29296875,-740.72265625,-887.6953125,-52.24609375,NaN
1731719256506.2188,6.34765625,-125.9765625,-456.0546875,-35.15625,NaN
1731719256510.125,-30.2734375,-62.98828125,-379.39453125,-33.203125,NaN
1731719256514.0312,-95.703125,-652.34375,-788.57421875,-54.6875,NaN
1731719256517.9375,-76.171875,-992.1875,-1000,-69.82421875,NaN
1731719256521.8438,-6.34765625,-449.21875,-752.44140625,-41.015625,NaN
1731719256525.75,-22.4609375,-201.171875,-498.53515625,-22.94921875,NaN
1731719256529.6562,-81.0546875,-808.59375,-885.25390625,-46.38671875,NaN
1731719256533.5625,-79.1015625,-821.77734375,-963.37890625,-78.125,NaN
1731719256537.4688,-11.71875,-263.671875,-644.04296875,-50.29296875,NaN
1731719256541.375,11.71875,-316.40625,-625.48828125,-11.71875,NaN
1731719256545.2812,-72.75390625,-435.05859375,-666.9921875,-43.45703125,NaN
1731719256549.1875,-105.46875,-573.73046875,-786.62109375,-62.01171875,NaN
1731719256553.0938,-29.296875,-569.82421875,-885.7421875,-40.0390625,NaN
1731719256557,13.18359375,-382.32421875,-722.16796875,-24.90234375,NaN
1731719256560.9062,-47.36328125,-823.73046875,-908.203125,-35.64453125,NaN
1731719256564.8125,-101.07421875,-726.5625,-879.39453125,-84.9609375,NaN
1731719256568.7188,-48.828125,-335.9375,-733.3984375,-88.37890625,NaN
1731719256572.625,23.4375,-461.9140625,-763.18359375,-31.25,NaN
1731719256576.5312,-4.8828125,-828.125,-943.359375,-20.99609375,NaN
1731719256580.4375,-93.75,-402.83203125,-691.40625,-67.87109375,NaN
1731719256584.3438,-68.84765625,-85.9375,-493.65234375,-77.1484375,NaN
1731719256588.25,16.6015625,-541.50390625,-819.3359375,-25.390625,NaN
1731719256592.1562,-14.16015625,-536.62109375,-757.8125,-1.46484375,NaN
1731719256596.0625,-80.56640625,-166.015625,-510.7421875,-57.12890625,NaN
1731719256599.9688,-65.4296875,-236.81640625,-644.04296875,-97.16796875,NaN
1731719256603.875,-4.8828125,-595.703125,-907.71484375,-41.9921875,NaN
1731719256607.7812,-2.44140625,-747.0703125,-916.9921875,-11.71875,NaN
1731719256611.6875,-76.171875,-583.984375,-726.5625,-61.5234375,NaN
1731719256615.5938,-104.98046875,-612.3046875,-845.21484375,-95.21484375,NaN
1731719256619.5,-34.66796875,-887.6953125,-1000,-62.01171875,NaN
1731719256623.4062,18.5546875,-831.0546875,-889.16015625,-12.6953125,NaN
1731719256627.3125,-34.66796875,-47.36328125,-344.7265625,-23.92578125,NaN
1731719256631.2188,-95.703125,-123.046875,-468.75,-70.80078125,NaN
1731719256635.125,-65.4296875,-669.43359375,-933.10546875,-61.5234375,NaN
1731719256639.0312,0.48828125,-370.1171875,-688.96484375,-25.87890625,NaN
1731719256642.9375,-31.25,-41.9921875,-394.04296875,-39.0625,NaN
1731719256646.8438,-104.00390625,-304.19921875,-601.07421875,-67.3828125,NaN
1731719256650.75,-83.0078125,-890.13671875,-1000,-79.58984375,NaN
1731719256654.6562,-14.16015625,-1000,-1000,-49.8046875,NaN
1731719256658.5625,-12.6953125,-606.4453125,-797.36328125,-24.4140625,NaN
1731719256662.4688,-73.2421875,-521.97265625,-722.65625,-36.62109375,NaN
1731719256666.375,-90.33203125,-1000,-1000,-37.109375,NaN
1731719256670.2812,-27.83203125,-649.90234375,-829.58984375,-43.45703125,NaN
1731719256674.1875,-7.8125,48.33984375,-315.91796875,-38.57421875,NaN
1731719256678.0938,-71.77734375,-272.94921875,-554.6875,-26.85546875,NaN
1731719256682,-99.609375,-775.390625,-1000,-59.08203125,NaN
1731719256685.9062,-33.203125,-525.390625,-833.0078125,-58.59375,NaN
1731719256689.8125,19.04296875,21.97265625,-355.95703125,-3.90625,NaN
1731719256693.7188,-22.4609375,-270.01953125,-570.3125,-2.44140625,NaN
1731719256697.625,-74.70703125,-595.703125,-875,-71.2890625,NaN
1731719256701.5312,-51.26953125,-665.52734375,-945.80078125,-86.42578125,NaN
1731719256705.4375,5.859375,-668.9453125,-933.10546875,-36.62109375,NaN
1731719256709.3438,-8.7890625,-799.8046875,-916.9921875,1.46484375,NaN
1731719256713.25,-82.03125,-737.3046875,-844.7265625,-45.41015625,NaN
1731719256717.1562,-75.1953125,-320.3125,-685.546875,-87.890625,NaN
1731719256721.0625,7.32421875,-478.02734375,-827.1484375,-44.921875,NaN
1731719256724.9688,8.30078125,-597.16796875,-770.01953125,-3.90625,NaN
1731719256728.875,-69.82421875,-309.5703125,-537.59765625,-37.59765625,NaN
1731719256732.7812,-91.30859375,-294.921875,-692.3828125,-82.03125,NaN
1731719256736.6875,-26.85546875,-481.4453125,-860.83984375,-62.98828125,NaN
1731719256740.5938,8.30078125,-483.3984375,-746.09375,-33.203125,NaN
1731719256744.5,-56.640625,-366.2109375,-664.0625,-41.015625,NaN
1731719256748.4062,-100.09765625,-757.32421875,-921.875,-52.24609375,NaN
1731719256752.3125,-39.55078125,-1000,-1000,-39.55078125,NaN
1731719256756.2188,24.4140625,-910.15625,-951.171875,-24.90234375,NaN
1731719256760.125,-27.83203125,-543.9453125,-780.2734375,-36.62109375,NaN
1731719256764.0312,-101.5625,-541.9921875,-888.18359375,-64.94140625,NaN
1731719256767.9375,-65.4296875,-913.0859375,-1000,-72.265625,NaN
1731719256771.8438,0.9765625,-804.6875,-917.96875,-30.2734375,NaN
1731719256775.75,-9.27734375,-417.48046875,-765.13671875,-9.27734375,NaN
1731719256779.6562,-68.84765625,-708.49609375,-887.6953125,-42.96875,NaN
1731719256783.5625,-79.58984375,-1000,-1000,-62.01171875,NaN
1731719256787.4688,-18.5546875,-818.359375,-986.81640625,-31.73828125,NaN
1731719256791.375,6.34765625,-420.41015625,-798.828125,-0.9765625,NaN
1731719256795.2812,-57.6171875,-648.92578125,-860.3515625,-30.2734375,NaN
1731719256799.1875,-80.56640625,-1000,-1000,-58.59375,NaN
1731719256803.0938,-10.25390625,-812.5,-945.80078125,-38.57421875,NaN
1731719256807,20.01953125,-358.3984375,-727.05078125,-17.08984375,NaN
1731719256810.9062,-44.921875,-391.11328125,-723.14453125,-30.76171875,NaN
1731719256814.8125,-97.16796875,-744.140625,-957.03125,-63.96484375,NaN
1731719256818.7188,-47.8515625,-653.80859375,-978.02734375,-74.21875,NaN
1731719256822.625,22.94921875,-347.16796875,-761.23046875,-34.1796875,NaN
1731719256826.5312,-8.30078125,-442.87109375,-693.359375,-15.13671875,NaN
1731719256830.4375,-89.84375,-693.359375,-909.1796875,-51.7578125,NaN
1731719256834.3438,-72.265625,-879.39453125,-1000,-63.4765625,NaN
1731719256838.25,0,-770.99609375,-893.06640625,-45.8984375,NaN
1731719256842.1562,0.48828125,-634.765625,-811.03515625,-31.25,NaN
1731719256846.0625,-67.87109375,-877.44140625,-948.2421875,-47.36328125,NaN
1731719256849.9688,-89.35546875,-632.32421875,-885.25390625,-78.125,NaN
1731719256853.875,-16.11328125,-318.84765625,-759.27734375,-59.5703125,NaN
1731719256857.7812,24.4140625,-500.48828125,-770.01953125,-11.23046875,NaN
1731719256861.6875,-31.73828125,-842.7734375,-927.24609375,-5.37109375,NaN
1731719256865.5938,-83.984375,-655.2734375,-961.42578125,-50.78125,NaN
1731719256869.5,-39.55078125,-367.67578125,-789.0625,-57.12890625,NaN
1731719256873.4062,16.11328125,-543.9453125,-819.82421875,-24.90234375,NaN
1731719256877.3125,-39.55078125,-542.48046875,-776.3671875,-26.85546875,NaN
1731719256881.2188,-110.3515625,-304.6875,-672.36328125,-65.91796875,NaN
1731719256885.125,-61.03515625,-447.75390625,-872.55859375,-62.01171875,NaN
1731719256889.0312,31.73828125,-771.97265625,-968.75,-0.9765625,NaN
1731719256892.9375,-0.9765625,-827.1484375,-913.57421875,-0.9765625,NaN
1731719256896.8438,-88.8671875,-693.359375,-906.73828125,-72.265625,NaN
1731719256900.75,-63.4765625,-527.83203125,-891.6015625,-83.49609375,NaN
1731719256904.6562,20.5078125,-737.3046875,-948.73046875,-35.15625,NaN
1731719256908.5625,0,-685.05859375,-779.296875,-20.01953125,NaN
1731719256912.4688,-80.56640625,-59.5703125,-387.6953125,-48.828125,NaN
1731719256916.375,-74.70703125,-361.328125,-720.21484375,-71.2890625,NaN
1731719256920.2812,-5.859375,-633.30078125,-923.33984375,-50.78125,NaN
1731719256924.1875,12.20703125,-209.9609375,-529.296875,-23.92578125,NaN
1731719256928.0938,-50.78125,-42.48046875,-430.17578125,-37.59765625,NaN
1731719256932,-79.58984375,-412.109375,-731.93359375,-63.4765625,NaN
1731719256935.9062,-16.6015625,-955.56640625,-1000,-41.015625,NaN
1731719256939.8125,28.80859375,-572.265625,-761.71875,-4.8828125,NaN
1731719256943.7188,-33.203125,88.8671875,-265.13671875,-28.3203125,NaN
1731719256947.625,-94.23828125,-381.34765625,-589.84375,-67.87109375,NaN
1731719256951.5312,-59.5703125,-994.140625,-1000,-64.94140625,NaN
1731719256955.4375,-9.27734375,-531.73828125,-801.26953125,-43.45703125,NaN
1731719256959.3438,-31.73828125,-114.2578125,-482.421875,-32.71484375,NaN
1731719256963.25,-76.66015625,-607.421875,-755.37109375,-48.33984375,NaN
1731719256967.1562,-68.84765625,-883.30078125,-1000,-65.4296875,NaN
1731719256971.0625,-8.30078125,-482.421875,-865.234375,-50.29296875,NaN
1731719256974.9688,5.37109375,-207.03125,-578.125,-25.390625,NaN
1731719256978.875,-74.21875,-591.796875,-778.80859375,-45.8984375,NaN
1731719256982.7812,-107.421875,-1000,-1000,-76.66015625,NaN
1731719256986.6875,-37.109375,-904.78515625,-992.1875,-74.21875,NaN
1731719256990.5938,-5.859375,-371.58203125,-687.01171875,-53.22265625,NaN
1731719256994.5,-77.1484375,-601.07421875,-728.02734375,-37.59765625,NaN
1731719256998.4062,-129.8828125,-959.9609375,-1000,-58.59375,NaN
1731719257002.3125,-82.51953125,-428.7109375,-817.87109375,-74.21875,NaN
1731719257006.2188,-23.92578125,-421.875,-744.140625,-52.734375,NaN
1731719257010.125,-61.03515625,-764.16015625,-895.5078125,-50.29296875,NaN
1731719257014.0312,-125.9765625,-533.203125,-774.4140625,-108.3984375,NaN
1731719257017.9375,-91.30859375,-340.8203125,-730.46875,-114.2578125,NaN
1731719257021.8438,-13.671875,-515.625,-819.3359375,-54.6875,NaN
1731719257025.75,-34.66796875,-561.03515625,-771.484375,-48.828125,NaN
1731719257029.6562,-123.53515625,-571.77734375,-768.5546875,-90.33203125,NaN
1731719257033.5625,-125.9765625,-683.10546875,-928.22265625,-108.88671875,NaN
1731719257037.4688,-43.45703125,-724.609375,-960.9375,-74.70703125,NaN
1731719257041.375,-27.34375,-869.140625,-929.19921875,-38.0859375,NaN
1731719257045.2812,-111.81640625,-456.0546875,-656.73828125,-86.42578125,NaN
1731719257049.1875,-138.18359375,-265.625,-631.8359375,-123.53515625,NaN
1731719257053.0938,-46.38671875,-586.9140625,-893.5546875,-72.265625,NaN
1731719257057,-2.9296875,-459.9609375,-721.6796875,-37.109375,NaN
1731719257060.9062,-78.125,-88.37890625,-380.859375,-65.91796875,NaN
1731719257064.8125,-110.3515625,-471.6796875,-727.05078125,-98.6328125,NaN
1731719257068.7188,-55.6640625,-947.265625,-1000,-94.7265625,NaN
1731719257072.625,-17.08984375,-685.546875,-823.2421875,-63.4765625,NaN
1731719257076.5312,-59.5703125,-434.08203125,-647.4609375,-55.6640625,NaN
1731719257080.4375,-113.76953125,-593.75,-748.046875,-75.68359375,NaN
1731719257084.3438,-84.9609375,-731.4453125,-894.53125,-64.453125,NaN
1731719257088.25,-4.8828125,-601.5625,-816.40625,-36.1328125,NaN
1731719257092.1562,-12.20703125,-151.85546875,-447.75390625,-35.15625,NaN
1731719257096.0625,-86.9140625,-240.72265625,-561.03515625,-52.24609375,NaN
1731719257099.9688,-86.42578125,-866.2109375,-979.4921875,-57.12890625,NaN
1731719257103.875,-37.59765625,-806.15234375,-915.52734375,-55.6640625,NaN
1731719257107.7812,-25.87890625,-124.0234375,-426.26953125,-61.03515625,NaN
1731719257111.6875,-92.28515625,-125.9765625,-397.4609375,-77.1484375,NaN
1731719257115.5938,-127.44140625,-254.8828125,-544.921875,-102.05078125,NaN
1731719257119.5,-49.8046875,58.59375,-316.89453125,-91.30859375,NaN
1731719257123.4062,13.671875,-6.8359375,-309.5703125,-59.5703125,NaN
1731719257127.3125,-44.921875,-245.1171875,-406.73828125,-44.921875,NaN
1731719257131.2188,-117.1875,-853.02734375,-879.39453125,-59.08203125,NaN
1731719257135.125,-91.796875,-686.03515625,-873.53515625,-91.796875,NaN
1731719257139.0312,-24.4140625,98.14453125,-294.43359375,-59.08203125,NaN
1731719257142.9375,-34.1796875,-83.49609375,-355.46875,-14.16015625,NaN
1731719257146.8438,-108.3984375,-273.92578125,-534.1796875,-81.0546875,NaN
1731719257150.75,-99.609375,97.16796875,-294.43359375,-114.74609375,NaN
1731719257154.6562,-15.13671875,207.03125,-200.1953125,-62.01171875,NaN
1731719257158.5625,-18.06640625,-114.74609375,-381.8359375,-28.80859375,NaN
1731719257162.4688,-92.28515625,-156.73828125,-407.2265625,-46.38671875,NaN
1731719257166.375,-102.5390625,-21.97265625,-361.81640625,-83.49609375,NaN
1731719257170.2812,-29.78515625,-410.64453125,-701.171875,-68.84765625,NaN
1731719257174.1875,-0.9765625,-770.5078125,-878.90625,-24.90234375,NaN
1731719257178.0938,-66.40625,-872.0703125,-930.17578125,-29.78515625,NaN
1731719257182,-104.98046875,-431.15234375,-666.50390625,-76.66015625,NaN
1731719257185.9062,-33.69140625,-71.2890625,-437.5,-90.8203125,NaN
1731719257189.8125,28.3203125,-469.7265625,-708.984375,-48.828125,NaN
1731719257193.7188,-37.109375,-389.16015625,-572.265625,-28.80859375,NaN
1731719257197.625,-109.86328125,0.48828125,-336.42578125,-66.89453125,NaN
1731719257201.5312,-83.49609375,-366.69921875,-734.86328125,-80.078125,NaN
1731719257205.4375,-20.5078125,-479.00390625,-790.0390625,-33.69140625,NaN
1731719257209.3438,-36.1328125,-13.671875,-322.265625,-10.7421875,NaN
1731719257213.25,-100.09765625,-31.25,-359.86328125,-52.734375,NaN
1731719257217.1562,-80.078125,-666.9921875,-875.9765625,-87.40234375,NaN
1731719257221.0625,-14.6484375,-910.15625,-983.88671875,-35.15625,NaN
1731719257224.9688,-26.3671875,-365.72265625,-588.8671875,-15.13671875,NaN
1731719257228.875,-101.07421875,149.90234375,-239.74609375,-67.87109375,NaN
1731719257232.7812,-107.91015625,-284.1796875,-593.75,-84.9609375,NaN
1731719257236.6875,-33.203125,-955.56640625,-1000,-58.59375,NaN
1731719257240.5938,-1.46484375,-573.2421875,-820.3125,-17.578125,NaN
1731719257244.5,-62.5,-299.8046875,-697.75390625,-41.015625,NaN
1731719257248.4062,-108.3984375,-759.27734375,-937.01171875,-94.23828125,NaN
1731719257252.3125,-64.453125,-981.93359375,-1000,-94.7265625,NaN
1731719257256.2188,-7.8125,-506.34765625,-813.96484375,-49.31640625,NaN
1731719257260.125,-42.96875,-274.90234375,-609.375,-37.59765625,NaN
1731719257264.0312,-103.02734375,-763.18359375,-878.41796875,-62.01171875,NaN
1731719257267.9375,-62.5,-1000,-1000,-74.21875,NaN
1731719257271.8438,9.765625,-497.0703125,-807.12890625,-65.91796875,NaN
1731719257275.75,-20.01953125,-148.4375,-479.98046875,-43.9453125,NaN
1731719257279.6562,-100.5859375,-642.578125,-782.2265625,-62.5,NaN
1731719257283.5625,-99.609375,-694.3359375,-919.921875,-79.1015625,NaN
1731719257287.4688,-16.6015625,-307.12890625,-718.26171875,-54.19921875,NaN
1731719257291.375,3.90625,-398.4375,-708.984375,-33.69140625,NaN
1731719257295.2812,-67.87109375,-605.46875,-794.921875,-51.7578125,NaN
1731719257299.1875,-89.35546875,-547.36328125,-840.33203125,-82.03125,NaN
1731719257303.0938,-41.50390625,-198.73046875,-623.53515625,-74.21875,NaN
1731719257307,-12.20703125,-148.4375,-471.19140625,-34.66796875,NaN
1731719257310.9062,-62.98828125,-594.7265625,-781.73828125,-56.15234375,NaN
1731719257314.8125,-119.62890625,-908.69140625,-973.6328125,-97.65625,NaN
1731719257318.7188,-78.125,-819.3359375,-952.1484375,-93.26171875,NaN
1731719257322.625,-12.20703125,-668.45703125,-895.99609375,-76.171875,NaN
1731719257326.5312,-45.41015625,-873.53515625,-929.19921875,-59.5703125,NaN
1731719257330.4375,-112.3046875,-510.25390625,-707.51953125,-84.47265625,NaN
1731719257334.3438,-81.54296875,-342.7734375,-692.87109375,-90.33203125,NaN
1731719257338.25,-16.11328125,-647.4609375,-918.45703125,-47.36328125,NaN
1731719257342.1562,-22.94921875,-374.51171875,-603.02734375,-25.87890625,NaN
1731719257346.0625,-95.21484375,-136.23046875,-450.68359375,-48.828125,NaN
1731719257349.9688,-96.19140625,-555.6640625,-864.74609375,-80.56640625,NaN
1731719257353.875,-15.625,-903.3203125,-1000,-55.6640625,NaN
1731719257357.7812,0.9765625,-816.89453125,-851.5625,-17.08984375,NaN
1731719257361.6875,-64.94140625,-519.53125,-669.43359375,-39.0625,NaN
1731719257365.5938,-87.890625,-332.03125,-622.55859375,-81.54296875,NaN
1731719257369.5,-21.484375,-769.53125,-919.921875,-53.22265625,NaN
1731719257373.4062,9.765625,-722.65625,-827.63671875,-10.7421875,NaN
1731719257377.3125,-34.66796875,-131.8359375,-412.59765625,-43.9453125,NaN
1731719257381.2188,-87.40234375,-322.265625,-614.2578125,-69.3359375,NaN
1731719257385.125,-60.05859375,-773.4375,-959.9609375,-52.734375,NaN
1731719257389.0312,0.48828125,-496.09375,-712.890625,-29.78515625,NaN
1731719257392.9375,-15.13671875,-79.1015625,-374.51171875,-25.390625,NaN
1731719257396.8438,-74.21875,-446.2890625,-656.73828125,-68.359375,NaN
1731719257400.75,-70.3125,-714.35546875,-870.1171875,-85.44921875,NaN
1731719257404.6562,5.859375,-674.31640625,-857.421875,-36.62109375,NaN
1731719257408.5625,-3.41796875,-744.140625,-879.39453125,-20.01953125,NaN
1731719257412.4688,-80.56640625,-798.828125,-881.34765625,-49.31640625,NaN
1731719257416.375,-79.58984375,-1000,-1000,-46.875,NaN
1731719257420.2812,-18.06640625,-766.6015625,-920.8984375,-42.96875,NaN
1731719257424.1875,13.18359375,-141.6015625,-454.58984375,-24.4140625,NaN
1731719257428.0938,-50.29296875,-317.87109375,-526.3671875,-26.3671875,NaN
1731719257432,-91.30859375,-630.859375,-870.1171875,-56.640625,NaN
1731719257435.9062,-23.92578125,-301.26953125,-677.734375,-58.59375,NaN
1731719257439.8125,29.296875,-49.8046875,-393.06640625,-26.3671875,NaN
1731719257443.7188,-22.94921875,-287.59765625,-514.6484375,-10.7421875,NaN
1731719257447.625,-81.54296875,-527.83203125,-781.73828125,-33.69140625,NaN
1731719257451.5312,-24.90234375,-723.14453125,-941.89453125,-28.80859375,NaN
1731719257455.4375,33.69140625,-697.75390625,-903.3203125,-18.06640625,NaN
1731719257459.3438,2.44140625,-714.84375,-844.23828125,-13.671875,NaN
1731719257463.25,-69.3359375,-975.5859375,-1000,-28.80859375,NaN
1731719257467.1562,-81.54296875,-721.6796875,-966.30859375,-70.80078125,NaN
1731719257471.0625,-9.27734375,-326.171875,-685.546875,-57.6171875,NaN
1731719257474.9688,-0.9765625,-454.1015625,-651.3671875,-18.06640625,NaN
1731719257478.875,-75.1953125,-601.07421875,-788.57421875,-29.296875,NaN
1731719257482.7812,-92.28515625,-389.16015625,-724.609375,-70.3125,NaN
1731719257486.6875,-23.4375,-411.1328125,-748.046875,-74.70703125,NaN
1731719257490.5938,10.7421875,-357.421875,-621.58203125,-29.296875,NaN
1731719257494.5,-59.08203125,50.29296875,-221.19140625,-39.0625,NaN
1731719257498.4062,-109.375,-359.86328125,-604.00390625,-70.3125,NaN
1731719257502.3125,-53.7109375,-800.29296875,-981.93359375,-74.70703125,NaN
1731719257506.2188,-12.6953125,-791.50390625,-883.30078125,-52.24609375,NaN
1731719257510.125,-64.94140625,-326.171875,-510.25390625,-61.5234375,NaN
1731719257514.0312,-114.74609375,-21.484375,-354.00390625,-77.63671875,NaN
1731719257517.9375,-71.2890625,-456.54296875,-737.79296875,-69.82421875,NaN
1731719257521.8438,-8.7890625,-654.296875,-880.859375,-56.640625,NaN
1731719257525.75,-32.2265625,-300.78125,-522.4609375,-25.87890625,NaN
1731719257529.6562,-104.98046875,-121.09375,-415.52734375,-56.15234375,NaN
1731719257533.5625,-94.7265625,-630.37109375,-831.54296875,-82.51953125,NaN
1731719257537.4688,-13.671875,-688.4765625,-837.890625,-50.78125,NaN
1731719257541.375,-11.71875,-206.54296875,-511.71875,-24.90234375,NaN
1731719257545.2812,-84.47265625,-512.20703125,-739.2578125,-41.50390625,NaN
1731719257549.1875,-102.5390625,-958.984375,-1000,-67.3828125,NaN
1731719257553.0938,-41.9921875,-802.24609375,-924.31640625,-62.5,NaN
1731719257557,-11.23046875,-97.65625,-436.03515625,-33.203125,NaN
1731719257560.9062,-67.87109375,-30.76171875,-329.58984375,-40.52734375,NaN
1731719257564.8125,-118.65234375,-631.8359375,-870.60546875,-67.87109375,NaN
1731719257568.7188,-76.66015625,-629.8828125,-961.9140625,-66.40625,NaN
1731719257572.625,-6.8359375,-88.8671875,-499.51171875,-57.12890625,NaN
1731719257576.5312,-37.59765625,-200.68359375,-497.0703125,-47.36328125,NaN
1731719257580.4375,-121.58203125,-790.0390625,-953.125,-77.63671875,NaN
1731719257584.3438,-103.515625,-540.52734375,-833.0078125,-104.00390625,NaN
1731719257588.25,-20.01953125,-28.80859375,-440.4296875,-80.078125,NaN
1731719257592.1562,-30.2734375,-231.4453125,-479.98046875,-51.7578125,NaN
1731719257596.0625,-108.88671875,-915.0390625,-922.8515625,-45.8984375,NaN
1731719257599.9688,-125.48828125,-851.07421875,-994.140625,-81.0546875,NaN
1731719257603.875,-49.31640625,-199.70703125,-596.6796875,-94.23828125,NaN
1731719257607.7812,-22.4609375,-241.69921875,-530.76171875,-48.33984375,NaN
1731719257611.6875,-96.6796875,-503.41796875,-716.30859375,-55.6640625,NaN
1731719257615.5938,-130.859375,-454.1015625,-782.71484375,-116.69921875,NaN
1731719257619.5,-75.1953125,-345.21484375,-754.8828125,-104.00390625,NaN
1731719257623.4062,-15.625,-421.875,-738.76953125,-60.05859375,NaN
1731719257627.3125,-70.80078125,-150.390625,-408.69140625,-56.640625,NaN
1731719257631.2188,-127.44140625,270.99609375,-83.984375,-83.984375,NaN
1731719257635.125,-71.2890625,12.6953125,-376.46484375,-109.375,NaN
1731719257639.0312,-19.04296875,-299.31640625,-555.17578125,-74.21875,NaN
1731719257642.9375,-48.828125,-553.22265625,-687.98828125,-51.26953125,NaN
1731719257646.8438,-113.76953125,-424.31640625,-651.3671875,-94.23828125,NaN
1731719257650.75,-106.4453125,-95.703125,-484.375,-103.02734375,NaN
1731719257654.6562,-33.69140625,-693.84765625,-888.18359375,-38.57421875,NaN
1731719257658.5625,-35.64453125,-762.20703125,-804.6875,-25.390625,NaN
1731719257662.4688,-125.9765625,113.76953125,-173.33984375,-86.42578125,NaN
1731719257666.375,-127.44140625,-81.54296875,-458.0078125,-110.3515625,NaN
1731719257670.2812,-36.1328125,-488.76953125,-816.89453125,-70.80078125,NaN
1731719257674.1875,-16.6015625,15.625,-318.84765625,-31.25,NaN
1731719257678.0938,-76.66015625,415.0390625,47.36328125,-37.59765625,NaN
1731719257682,-109.86328125,-160.15625,-478.02734375,-88.37890625,NaN
1731719257685.9062,-64.94140625,-750,-965.8203125,-95.703125,NaN
1731719257689.8125,-28.80859375,-360.3515625,-595.21484375,-60.546875,NaN
1731719257693.7188,-81.0546875,-78.125,-337.890625,-62.01171875,NaN
1731719257697.625,-132.32421875,-654.296875,-784.66796875,-87.890625,NaN
1731719257701.5312,-99.12109375,-892.578125,-987.3046875,-84.9609375,NaN
1731719257705.4375,-26.85546875,-212.890625,-522.94921875,-70.80078125,NaN
1731719257709.3438,-54.6875,262.20703125,-122.0703125,-77.1484375,NaN
1731719257713.25,-121.58203125,-354.00390625,-545.41015625,-97.65625,NaN
1731719257717.1562,-106.93359375,-877.9296875,-987.79296875,-102.5390625,NaN
1731719257721.0625,-50.29296875,-226.07421875,-569.3359375,-87.40234375,NaN
1731719257724.9688,-29.78515625,313.96484375,-57.12890625,-55.17578125,NaN
1731719257728.875,-99.609375,-33.203125,-285.15625,-72.75390625,NaN
1731719257732.7812,-133.7890625,-622.0703125,-822.75390625,-97.65625,NaN
1731719257736.6875,-63.96484375,-651.3671875,-913.57421875,-83.49609375,NaN
1731719257740.5938,-40.0390625,-209.9609375,-517.08984375,-65.91796875,NaN
1731719257744.5,-107.91015625,-430.6640625,-564.94140625,-58.10546875,NaN
1731719257748.4062,-153.3203125,-840.33203125,-945.80078125,-88.37890625,NaN
1731719257752.3125,-106.93359375,-458.0078125,-748.046875,-87.40234375,NaN
1731719257756.2188,-60.05859375,-227.5390625,-510.7421875,-44.43359375,NaN
1731719257760.125,-90.8203125,-448.73046875,-614.2578125,-41.9921875,NaN
1731719257764.0312,-136.71875,-466.796875,-696.77734375,-104.4921875,NaN
1731719257767.9375,-109.86328125,-207.51953125,-613.76953125,-118.1640625,NaN
1731719257771.8438,-47.8515625,-371.58203125,-736.81640625,-69.82421875,NaN
1731719257775.75,-81.0546875,-631.8359375,-869.140625,-54.6875,NaN
1731719257779.6562,-149.90234375,-706.0546875,-903.3203125,-87.890625,NaN
1731719257783.5625,-129.8828125,-590.33203125,-900.87890625,-104.98046875,NaN
1731719257787.4688,-43.45703125,-667.48046875,-916.50390625,-73.2421875,NaN
1731719257791.375,-27.83203125,-908.203125,-957.51953125,-43.9453125,NaN
1731719257795.2812,-108.3984375,-412.109375,-636.23046875,-74.70703125,NaN
1731719257799.1875,-143.5546875,-262.6953125,-645.01953125,-95.21484375,NaN
1731719257803.0938,-77.63671875,-651.85546875,-948.73046875,-59.5703125,NaN
1731719257807,-28.80859375,-583.0078125,-777.34375,-47.8515625,NaN
1731719257810.9062,-96.6796875,-284.66796875,-513.18359375,-83.0078125,NaN
1731719257814.8125,-145.01953125,-361.328125,-720.21484375,-117.1875,NaN
1731719257818.7188,-80.078125,-786.62109375,-1000,-98.14453125,NaN
1731719257822.625,-28.3203125,-744.62890625,-845.703125,-53.22265625,NaN
1731719257826.5312,-67.3828125,-552.734375,-732.91015625,-44.921875,NaN
1731719257830.4375,-121.58203125,-715.8203125,-882.8125,-82.03125,NaN
1731719257834.3438,-79.1015625,-963.37890625,-1000,-96.6796875,NaN
1731719257838.25,4.39453125,-886.23046875,-959.47265625,-61.03515625,NaN
1731719257842.1562,-10.7421875,-133.7890625,-410.64453125,-57.6171875,NaN
1731719257846.0625,-84.9609375,-145.99609375,-429.6875,-74.70703125,NaN
1731719257849.9688,-111.81640625,-721.19140625,-946.2890625,-93.26171875,NaN
1731719257853.875,-38.0859375,-461.9140625,-750.9765625,-77.1484375,NaN
1731719257857.7812,-8.7890625,36.62109375,-306.15234375,-47.36328125,NaN
1731719257861.6875,-81.54296875,-212.890625,-483.3984375,-38.0859375,NaN
1731719257865.5938,-74.21875,-746.58203125,-903.3203125,-56.15234375,NaN
1731719257869.5,77.63671875,-416.9921875,-666.50390625,-46.875,NaN
1731719257873.4062,147.4609375,-36.62109375,-306.15234375,-3.41796875,NaN
1731719257877.3125,68.84765625,-178.7109375,-278.3203125,-8.7890625,NaN
1731719257881.2188,-1.953125,-404.78515625,-520.99609375,-59.08203125,NaN
1731719257885.125,-0.9765625,-86.42578125,-364.74609375,-74.21875,NaN
1731719257889.0312,24.4140625,401.3671875,46.875,-45.8984375,NaN
1731719257892.9375,-21.484375,47.8515625,-166.50390625,-40.0390625,NaN
1731719257896.8438,-102.05078125,-870.1171875,-892.578125,-67.3828125,NaN
1731719257900.75,-98.14453125,-655.2734375,-851.07421875,-103.515625,NaN
1731719257904.6562,-34.66796875,10.7421875,-354.98046875,-83.984375,NaN
1731719257908.5625,-43.45703125,27.34375,-220.703125,-63.96484375,NaN
1731719257912.4688,-121.09375,-235.3515625,-479.98046875,-87.40234375,NaN
1731719257916.375,-123.046875,-186.5234375,-550.78125,-121.58203125,NaN
1731719257920.2812,-45.41015625,-387.6953125,-695.80078125,-95.21484375,NaN
1731719257924.1875,-41.015625,-847.65625,-949.21875,-38.57421875,NaN
1731719257928.0938,-106.4453125,-761.23046875,-826.171875,-37.109375,NaN
1731719257932,-136.71875,-174.31640625,-482.91015625,-94.23828125,NaN
1731719257935.9062,-80.078125,-108.3984375,-521.484375,-101.5625,NaN
1731719257939.8125,-28.80859375,-351.07421875,-640.625,-52.734375,NaN
1731719257943.7188,-74.21875,-146.97265625,-391.6015625,-46.38671875,NaN
1731719257947.625,-127.44140625,-67.87109375,-381.34765625,-76.171875,NaN
1731719257951.5312,-86.42578125,-535.15625,-830.56640625,-91.796875,NaN
1731719257955.4375,-19.53125,-422.8515625,-692.87109375,-66.89453125,NaN
1731719257959.3438,-44.921875,66.89453125,-213.37890625,-51.26953125,NaN
1731719257963.25,-102.05078125,-60.05859375,-384.765625,-67.3828125,NaN
1731719257967.1562,-76.171875,-756.8359375,-903.80859375,-71.77734375,NaN
1731719257971.0625,-10.25390625,-1000,-1000,-56.15234375,NaN
1731719257974.9688,-25.390625,-474.12109375,-681.15234375,-48.828125,NaN
1731719257978.875,-107.421875,-234.86328125,-514.6484375,-84.9609375,NaN
1731719257982.7812,-118.65234375,-725.5859375,-852.05078125,-86.42578125,NaN
1731719257986.6875,-50.29296875,-739.2578125,-852.5390625,-67.3828125,NaN
1731719257990.5938,-22.94921875,-42.48046875,-330.078125,-68.84765625,NaN
1731719257994.5,-88.37890625,28.3203125,-256.34765625,-74.70703125,NaN
1731719257998.4062,-131.34765625,-440.4296875,-651.3671875,-100.5859375,NaN
1731719258002.3125,-65.4296875,-495.1171875,-780.2734375,-92.7734375,NaN
1731719258006.2188,-8.7890625,-177.24609375,-541.9921875,-55.6640625,NaN
1731719258010.125,-56.15234375,-36.62109375,-337.890625,-71.77734375,NaN
1731719258014.0312,-114.74609375,-644.04296875,-754.39453125,-82.51953125,NaN
1731719258017.9375,-71.2890625,-809.08203125,-924.8046875,-85.9375,NaN
1731719258021.8438,-5.859375,-181.15234375,-509.765625,-72.75390625,NaN
1731719258025.75,-26.3671875,5.37109375,-334.47265625,-58.10546875,NaN
1731719258029.6562,-82.51953125,-503.41796875,-680.17578125,-87.40234375,NaN
1731719258033.5625,-55.6640625,-666.015625,-898.92578125,-100.5859375,NaN
1731719258037.4688,15.13671875,-372.55859375,-713.8671875,-57.6171875,NaN
1731719258041.375,-10.25390625,-376.953125,-575.68359375,-9.765625,NaN
1731719258045.2812,-87.890625,-636.71875,-764.16015625,-41.015625,NaN
1731719258049.1875,-94.23828125,-557.6171875,-820.80078125,-76.171875,NaN
1731719258053.0938,-21.484375,-190.91796875,-588.8671875,-46.875,NaN
1731719258057,17.578125,-220.703125,-522.4609375,-23.92578125,NaN
1731719258060.9062,-39.0625,-658.69140625,-778.3203125,-39.55078125,NaN
1731719258064.8125,-88.8671875,-506.34765625,-698.73046875,-70.80078125,NaN
1731719258068.7188,-44.921875,-77.63671875,-484.86328125,-78.125,NaN
1731719258072.625,16.11328125,-384.765625,-676.26953125,-19.04296875,NaN
1731719258076.5312,-6.8359375,-779.78515625,-869.62890625,7.32421875,NaN
1731719258080.4375,-86.9140625,-398.92578125,-668.9453125,-54.6875,NaN
1731719258084.3438,-74.70703125,-186.03515625,-612.3046875,-79.1015625,NaN
1731719258088.25,5.37109375,-381.34765625,-738.76953125,-45.41015625,NaN
1731719258092.1562,-13.18359375,-482.421875,-742.1875,-25.87890625,NaN
1731719258096.0625,-99.609375,-527.34375,-773.92578125,-62.5,NaN
1731719258099.9688,-113.28125,-300.78125,-653.3203125,-96.6796875,NaN
1731719258103.875,-31.25,-549.31640625,-778.80859375,-73.2421875,NaN
1731719258107.7812,-25.390625,-854.98046875,-896.97265625,-54.19921875,NaN
1731719258111.6875,-109.375,-347.65625,-528.80859375,-76.66015625,NaN
1731719258115.5938,-130.37109375,-81.54296875,-431.15234375,-107.91015625,NaN
1731719258119.5,-56.640625,-637.6953125,-831.54296875,-78.61328125,NaN
1731719258123.4062,-8.30078125,-634.27734375,-756.34765625,-32.71484375,NaN
1731719258127.3125,-70.80078125,-48.828125,-363.28125,-68.84765625,NaN
1731719258131.2188,-112.79296875,-232.421875,-550.29296875,-93.26171875,NaN
1731719258135.125,-57.12890625,-571.77734375,-816.40625,-80.56640625,NaN
1731719258139.0312,-9.765625,-391.11328125,-675.29296875,-62.01171875,NaN
1731719258142.9375,-42.96875,-77.1484375,-426.26953125,-36.1328125,NaN
1731719258146.8438,-76.171875,-355.95703125,-615.72265625,-54.6875,NaN
1731719258150.75,-48.828125,-795.8984375,-951.66015625,-60.546875,NaN
1731719258154.6562,6.8359375,-630.37109375,-833.984375,-34.66796875,NaN
1731719258158.5625,-3.90625,-593.26171875,-776.3671875,-24.4140625,NaN
1731719258162.4688,-76.66015625,-783.69140625,-895.01953125,-62.5,NaN
1731719258166.375,-89.35546875,-1000,-1000,-80.078125,NaN
1731719258170.2812,-20.01953125,-649.90234375,-801.26953125,-58.10546875,NaN
1731719258174.1875,0.9765625,69.3359375,-273.4375,-33.203125,NaN
1731719258178.0938,-75.68359375,-99.609375,-343.26171875,-41.9921875,NaN
1731719258182,-115.72265625,-284.66796875,-534.66796875,-75.1953125,NaN
1731719258185.9062,-52.734375,-37.59765625,-408.203125,-67.87109375,NaN
1731719258189.8125,5.859375,-8.7890625,-372.0703125,-36.1328125,NaN
1731719258193.7188,-45.41015625,-256.8359375,-498.53515625,-41.50390625,NaN
1731719258197.625,-110.3515625,-377.44140625,-610.83984375,-90.33203125,NaN
1731719258201.5312,-62.5,-489.74609375,-737.3046875,-86.9140625,NaN
1731719258205.4375,-4.39453125,-411.62109375,-621.09375,-59.5703125,NaN
1731719258209.3438,-45.41015625,-648.4375,-745.1171875,-44.43359375,NaN
1731719258213.25,-100.09765625,-891.6015625,-941.89453125,-59.5703125,NaN
1731719258217.1562,-96.6796875,-351.07421875,-662.59765625,-77.1484375,NaN
1731719258221.0625,-27.34375,-166.50390625,-550.29296875,-37.59765625,NaN
1731719258224.9688,-20.99609375,-170.41015625,-424.31640625,-29.78515625,NaN
1731719258228.875,-97.16796875,-104.4921875,-376.46484375,-73.2421875,NaN
1731719258232.7812,-108.3984375,-162.109375,-517.578125,-101.5625,NaN
1731719258236.6875,-32.71484375,-402.83203125,-736.328125,-72.265625,NaN
1731719258240.5938,-1.46484375,-466.30859375,-684.08203125,-33.69140625,NaN
1731719258244.5,-61.5234375,-82.51953125,-290.0390625,-53.22265625,NaN
1731719258248.4062,-100.09765625,-365.234375,-587.890625,-95.21484375,NaN
1731719258252.3125,-52.734375,-745.60546875,-915.52734375,-79.58984375,NaN
1731719258256.2188,5.37109375,-760.25390625,-834.47265625,-31.25,NaN
1731719258260.125,-44.921875,-278.80859375,-433.10546875,-41.9921875,NaN
1731719258264.0312,-110.3515625,-16.11328125,-315.4296875,-75.68359375,NaN
1731719258267.9375,-63.96484375,-607.91015625,-787.59765625,-82.03125,NaN
1731719258271.8438,-5.859375,-686.5234375,-783.69140625,-49.8046875,NaN
1731719258275.75,-32.71484375,24.90234375,-211.42578125,-32.71484375,NaN
1731719258279.6562,-98.6328125,-37.59765625,-319.82421875,-61.03515625,NaN
1731719258283.5625,-100.09765625,-684.5703125,-893.06640625,-83.49609375,NaN
1731719258287.4688,-24.90234375,-592.7734375,-853.02734375,-53.7109375,NaN
1731719258291.375,7.8125,-41.50390625,-340.33203125,-29.78515625,NaN
1731719258295.2812,-53.7109375,-271.97265625,-441.89453125,-48.828125,NaN
1731719258299.1875,-104.4921875,-862.79296875,-909.1796875,-68.359375,NaN
1731719258303.0938,-42.96875,-770.99609375,-862.3046875,-49.31640625,NaN
1731719258307,-3.90625,-12.20703125,-271.484375,-33.203125,NaN
1731719258310.9062,-59.08203125,54.6875,-187.98828125,-52.24609375,NaN
1731719258314.8125,-101.07421875,-365.234375,-567.3828125,-65.4296875,NaN
1731719258318.7188,-58.59375,-256.34765625,-537.59765625,-45.41015625,NaN
1731719258322.625,-6.8359375,-142.578125,-409.1796875,-24.4140625,NaN
1731719258326.5312,-42.48046875,-324.70703125,-443.84765625,-21.97265625,NaN
1731719258330.4375,-107.91015625,-609.86328125,-707.51953125,-55.6640625,NaN
1731719258334.3438,-83.49609375,-410.64453125,-640.625,-63.96484375,NaN
1731719258338.25,-17.578125,-81.0546875,-370.60546875,-37.109375,NaN
1731719258342.1562,-32.2265625,-336.42578125,-457.51953125,-41.9921875,NaN
1731719258346.0625,-97.65625,-837.890625,-859.375,-65.4296875,NaN
1731719258349.9688,-105.95703125,-629.39453125,-844.23828125,-79.1015625,NaN
1731719258353.875,-32.71484375,-4.39453125,-374.51171875,-80.078125,NaN
1731719258357.7812,-5.859375,-104.00390625,-351.07421875,-52.734375,NaN
1731719258361.6875,-66.40625,-308.10546875,-485.83984375,-50.29296875,NaN
1731719258365.5938,-74.21875,-128.90625,-440.91796875,-80.078125,NaN
1731719258369.5,-2.9296875,-167.96875,-520.99609375,-62.5,NaN
1731719258373.4062,30.76171875,-136.71875,-336.42578125,-12.6953125,NaN
1731719258377.3125,-33.203125,-16.11328125,-170.8984375,-9.765625,NaN
1731719258381.2188,-98.6328125,-300.29296875,-503.90625,-60.546875,NaN
1731719258385.125,-56.15234375,-281.25,-536.1328125,-78.125,NaN
1731719258389.0312,27.83203125,-522.94921875,-669.921875,-21.97265625,NaN
1731719258392.9375,0,-908.203125,-926.26953125,7.32421875,NaN
1731719258396.8438,-93.26171875,-249.0234375,-443.84765625,-37.59765625,NaN
1731719258400.75,-79.58984375,-43.9453125,-345.703125,-47.36328125,NaN
1731719258404.6562,-5.37109375,-182.12890625,-435.546875,-43.9453125,NaN
1731719258408.5625,-11.71875,191.40625,-14.16015625,-50.78125,NaN
1731719258412.4688,-77.1484375,223.6328125,0,-61.03515625,NaN
1731719258416.375,-71.2890625,-412.109375,-623.046875,-74.70703125,NaN
1731719258420.2812,-13.671875,-312.01171875,-484.86328125,-62.98828125,NaN
1731719258424.1875,-10.7421875,363.28125,170.8984375,-32.71484375,NaN
1731719258428.0938,-70.3125,457.03125,245.1171875,-31.25,NaN
1731719258432,-90.8203125,8.30078125,-163.57421875,-48.33984375,NaN
1731719258435.9062,-21.484375,-473.6328125,-543.45703125,-44.921875,NaN
1731719258439.8125,7.8125,-253.41796875,-250.48828125,-31.73828125,NaN
1731719258443.7188,-45.41015625,135.25390625,101.5625,-41.015625,NaN
1731719258447.625,-83.0078125,-73.73046875,-165.0390625,-76.66015625,NaN
1731719258451.5312,-50.78125,-824.70703125,-846.6796875,-65.4296875,NaN
1731719258455.4375,-3.41796875,-223.14453125,-332.51953125,-46.38671875,NaN
1731719258459.3438,-39.0625,594.7265625,429.19921875,-40.0390625,NaN
1731719258463.25,-107.91015625,-84.9609375,-117.1875,-68.84765625,NaN
1731719258467.1562,-73.73046875,-437.5,-473.6328125,-83.0078125,NaN
1731719258471.0625,-0.48828125,324.21875,168.45703125,-43.45703125,NaN
1731719258474.9688,-25.87890625,721.19140625,608.3984375,-43.9453125,NaN
1731719258478.875,-95.703125,151.85546875,115.72265625,-56.640625,NaN
1731719258482.7812,-102.05078125,-462.890625,-446.2890625,-68.84765625,NaN
1731719258486.6875,-34.66796875,-241.2109375,-288.0859375,-67.87109375,NaN
1731719258490.5938,-14.16015625,422.8515625,325.68359375,-39.55078125,NaN
1731719258494.5,-66.89453125,-222.65625,-175.78125,-28.3203125,NaN
1731719258498.4062,-114.2578125,-572.265625,-512.6953125,-73.2421875,NaN
1731719258502.3125,-69.3359375,505.37109375,367.67578125,-88.8671875,NaN
1731719258506.2188,-0.48828125,798.828125,662.109375,-20.5078125,NaN
1731719258510.125,-47.8515625,128.90625,233.3984375,5.859375,NaN
1731719258514.0312,-112.3046875,4.8828125,92.7734375,-64.94140625,NaN
1731719258517.9375,-80.078125,551.26953125,453.125,-94.23828125,NaN
1731719258521.8438,-4.8828125,491.2109375,436.5234375,-43.45703125,NaN
1731719258525.75,-15.13671875,490.72265625,518.5546875,-19.04296875,NaN
1731719258529.6562,-92.28515625,237.79296875,342.28515625,-48.828125,NaN
1731719258533.5625,-86.42578125,107.421875,148.4375,-73.73046875,NaN
1731719258537.4688,3.41796875,329.58984375,338.37890625,-25.87890625,NaN
1731719258541.375,8.30078125,-139.16015625,103.515625,17.578125,NaN
1731719258545.2812,-77.1484375,343.75,520.5078125,-29.296875,NaN
1731719258549.1875,-87.40234375,877.44140625,864.74609375,-70.3125,NaN
1731719258553.0938,-3.90625,316.89453125,371.09375,-30.2734375,NaN
1731719258557,25.87890625,423.828125,524.4140625,-0.9765625,NaN
1731719258560.9062,-39.0625,999.51171875,999.51171875,-16.11328125,NaN
1731719258564.8125,-75.1953125,999.51171875,999.51171875,-40.0390625,NaN
1731719258568.7188,-12.20703125,669.43359375,742.67578125,-29.296875,NaN
1731719258572.625,46.875,643.06640625,710.44921875,13.18359375,NaN
1731719258576.5312,-7.8125,883.7890625,988.28125,10.25390625,NaN
1731719258580.4375,-63.96484375,684.5703125,864.74609375,-25.390625,NaN
1731719258584.3438,-41.015625,-86.9140625,176.7578125,-33.203125,NaN
1731719258588.25,26.3671875,-4.39453125,245.1171875,-9.765625,NaN
1731719258592.1562,6.34765625,999.51171875,999.51171875,-4.8828125,NaN
1731719258596.0625,-79.1015625,953.61328125,961.9140625,-33.203125,NaN
1731719258599.9688,-89.84375,668.45703125,749.51171875,-59.5703125,NaN
1731719258603.875,-22.4609375,799.31640625,828.61328125,-49.31640625,NaN
1731719258607.7812,1.953125,999.51171875,999.51171875,-11.71875,NaN
1731719258611.6875,-75.68359375,678.7109375,799.8046875,-26.3671875,NaN
1731719258615.5938,-104.4921875,206.0546875,418.45703125,-55.17578125,NaN
1731719258619.5,-30.2734375,583.49609375,655.76171875,-24.4140625,NaN
1731719258623.4062,-5.859375,781.25,887.6953125,-30.2734375,NaN
1731719258627.3125,-86.42578125,535.64453125,748.046875,-70.80078125,NaN
1731719258631.2188,-134.27734375,-109.86328125,133.7890625,-92.7734375,NaN
1731719258635.125,-86.42578125,236.81640625,327.1484375,-97.16796875,NaN
1731719258639.0312,-33.203125,999.51171875,999.51171875,-73.73046875,NaN
1731719258642.9375,-49.8046875,692.3828125,764.16015625,-55.17578125,NaN
1731719258646.8438,-103.02734375,562.5,653.80859375,-88.37890625,NaN
1731719258650.75,-87.890625,809.08203125,742.1875,-82.51953125,NaN
1731719258654.6562,-7.32421875,816.40625,704.58984375,-30.76171875,NaN
1731719258658.5625,-24.90234375,565.91796875,575.1953125,-38.57421875,NaN
1731719258662.4688,-115.234375,474.609375,514.6484375,-80.56640625,NaN
1731719258666.375,-99.12109375,328.61328125,283.69140625,-81.54296875,NaN
1731719258670.2812,-15.13671875,192.87109375,197.265625,-42.96875,NaN
1731719258674.1875,0.48828125,-297.36328125,-149.4140625,-7.32421875,NaN
1731719258678.0938,-76.66015625,-787.59765625,-697.265625,-32.2265625,NaN
1731719258682,-119.62890625,28.3203125,-41.50390625,-91.796875,NaN
1731719258685.9062,-51.26953125,296.38671875,192.3828125,-64.94140625,NaN
1731719258689.8125,2.44140625,98.14453125,50.78125,-33.203125,NaN
1731719258693.7188,-55.6640625,123.046875,54.6875,-46.38671875,NaN
1731719258697.625,-114.2578125,173.33984375,-5.37109375,-63.96484375,NaN
1731719258701.5312,-71.2890625,-213.8671875,-401.85546875,-65.91796875,NaN
1731719258705.4375,-13.671875,-357.91015625,-477.5390625,-50.78125,NaN
1731719258709.3438,-54.6875,166.9921875,27.83203125,-66.40625,NaN
1731719258713.25,-128.90625,87.40234375,-93.26171875,-74.21875,NaN
