time,TP9,AF7,AF8,TP10,AUX
1731719405429.75,-52.734375,-479.98046875,-729.00390625,-63.96484375,NaN
1731719405433.6562,17.08984375,-581.0546875,-776.85546875,-20.01953125,NaN
1731719405437.5625,6.34765625,-124.51171875,-356.93359375,7.8125,NaN
1731719405441.4688,-51.26953125,-123.53515625,-362.3046875,-33.69140625,NaN
1731719405445.375,-49.31640625,-561.5234375,-759.765625,-72.75390625,NaN
1731719405449.2812,-5.37109375,-794.921875,-927.24609375,-38.0859375,NaN
1731719405453.1875,0.48828125,-556.15234375,-648.4375,-3.41796875,NaN
1731719405457.0938,-37.109375,-285.64453125,-417.48046875,-12.6953125,NaN
1731719405461,-47.36328125,-505.37109375,-649.4140625,-29.78515625,NaN
1731719405464.9062,-3.90625,-965.8203125,-996.58203125,-32.71484375,NaN
1731719405468.8125,3.41796875,-364.2578125,-546.875,-20.01953125,NaN
1731719405472.7188,-37.109375,122.55859375,-146.97265625,-11.23046875,NaN
1731719405476.625,-54.6875,-487.3046875,-633.30078125,-41.9921875,NaN
1731719405480.5312,-37.109375,-656.73828125,-862.3046875,-63.4765625,NaN
1731719405484.4375,-3.90625,-249.0234375,-561.03515625,-19.53125,NaN
1731719405488.3438,-10.7421875,-75.1953125,-312.98828125,-4.39453125,NaN
1731719405492.25,-49.8046875,-451.171875,-612.79296875,-29.78515625,NaN
1731719405496.1562,-54.19921875,-868.1640625,-1000,-41.9921875,NaN
1731719405500.0625,-8.30078125,-594.23828125,-824.21875,-42.96875,NaN
1731719405503.9688,-11.23046875,-357.421875,-547.8515625,-24.4140625,NaN
1731719405507.875,-67.87109375,-829.1015625,-860.3515625,-20.99609375,NaN
1731719405511.7812,-74.21875,-714.84375,-872.0703125,-61.03515625,NaN
1731719405515.6875,-23.4375,-503.41796875,-809.5703125,-61.03515625,NaN
1731719405519.5938,5.859375,-499.0234375,-705.56640625,1.953125,NaN
1731719405523.5,-40.52734375,-814.94140625,-868.65234375,11.23046875,NaN
1731719405527.4062,-80.078125,-683.59375,-881.34765625,-51.7578125,NaN
1731719405531.3125,-32.71484375,-350.09765625,-713.8671875,-72.75390625,NaN
1731719405535.2188,5.37109375,-382.32421875,-669.921875,-36.1328125,NaN
1731719405539.125,-28.80859375,-404.78515625,-580.56640625,-9.765625,NaN
1731719405543.0312,-65.4296875,-730.46875,-842.7734375,-31.25,NaN
1731719405546.9375,-45.41015625,-864.74609375,-1000,-57.12890625,NaN
1731719405550.8438,-18.06640625,-669.43359375,-904.296875,-53.7109375,NaN
1731719405554.75,-34.1796875,-528.80859375,-691.89453125,-25.390625,NaN
1731719405558.6562,-73.73046875,-265.13671875,-509.765625,-40.0390625,NaN
1731719405562.5625,-70.3125,-438.96484375,-739.2578125,-69.82421875,NaN
1731719405566.4688,-8.30078125,-970.21484375,-1000,-24.4140625,NaN
1731719405570.375,12.20703125,-969.23828125,-956.0546875,13.671875,NaN
1731719405574.2812,-65.91796875,-487.79296875,-725.5859375,-30.76171875,NaN
1731719405578.1875,-83.984375,-665.0390625,-938.4765625,-67.3828125,NaN
1731719405582.0938,-21.484375,-914.0625,-1000,-46.875,NaN
1731719405586,-12.6953125,-312.5,-559.08203125,-10.25390625,NaN
1731719405589.9062,-69.3359375,-420.41015625,-664.0625,-25.87890625,NaN
1731719405593.8125,-98.14453125,-974.12109375,-987.3046875,-79.58984375,NaN
1731719405597.7188,-30.2734375,-1000,-1000,-74.21875,NaN
1731719405601.625,6.34765625,-590.8203125,-791.015625,-41.9921875,NaN
1731719405605.5312,-51.26953125,-149.90234375,-506.8359375,-17.08984375,NaN
1731719405609.4375,-90.8203125,-459.47265625,-752.9296875,-14.16015625,NaN
1731719405613.3438,-64.94140625,-974.12109375,-1000,-83.49609375,NaN
1731719405617.25,-24.4140625,-822.75390625,-993.1640625,-74.21875,NaN
1731719405621.1562,-39.55078125,-776.3671875,-995.60546875,-30.76171875,NaN
1731719405625.0625,-86.42578125,-1000,-1000,-52.734375,NaN
1731719405628.9688,-67.3828125,-1000,-1000,-55.17578125,NaN
1731719405632.875,-2.44140625,-994.62890625,-1000,-47.8515625,NaN
1731719405636.7812,-2.44140625,-997.55859375,-1000,-37.109375,NaN
1731719405640.6875,-53.7109375,-1000,-1000,-27.34375,NaN
1731719405644.5938,-70.3125,-985.83984375,-1000,-49.31640625,NaN
1731719405648.5,-31.25,-831.0546875,-1000,-63.96484375,NaN
1731719405652.4062,0.48828125,-765.13671875,-1000,-22.4609375,NaN
1731719405656.3125,-30.2734375,-955.56640625,-1000,2.9296875,NaN
1731719405660.2188,-71.2890625,-1000,-999.0234375,-41.9921875,NaN
1731719405664.125,-43.45703125,-1000,-1000,-69.3359375,NaN
1731719405668.0312,-6.34765625,-909.66796875,-987.3046875,-49.8046875,NaN
1731719405671.9375,-41.015625,-870.60546875,-983.88671875,-32.71484375,NaN
1731719405675.8438,-89.35546875,-883.30078125,-1000,-45.41015625,NaN
1731719405679.75,-76.66015625,-958.49609375,-1000,-72.75390625,NaN
1731719405683.6562,-31.25,-1000,-999.51171875,-59.08203125,NaN
1731719405687.5625,-33.69140625,-1000,-1000,-14.6484375,NaN
1731719405691.4688,-82.51953125,-925.78125,-999.0234375,-27.34375,NaN
1731719405695.375,-97.65625,-699.21875,-985.83984375,-78.125,NaN
1731719405699.2812,-37.59765625,-735.3515625,-1000,-61.5234375,NaN
1731719405703.1875,-25.390625,-823.2421875,-969.7265625,-16.6015625,NaN
1731719405707.0938,-79.1015625,-517.08984375,-805.17578125,-11.71875,NaN
1731719405711,-83.49609375,-592.7734375,-920.41015625,-38.57421875,NaN
1731719405714.9062,-39.55078125,-967.28515625,-1000,-62.98828125,NaN
1731719405718.8125,-10.7421875,-716.796875,-851.07421875,-28.80859375,NaN
1731719405722.7188,-50.78125,-214.84375,-499.0234375,-9.765625,NaN
1731719405726.625,-94.23828125,-544.43359375,-740.72265625,-57.12890625,NaN
1731719405730.5312,-50.29296875,-1000,-1000,-61.5234375,NaN
1731719405734.4375,-4.39453125,-1000,-1000,-14.6484375,NaN
1731719405738.3438,-36.1328125,-645.99609375,-749.51171875,15.625,NaN
1731719405742.25,-83.984375,-339.84375,-586.42578125,-24.4140625,NaN
1731719405746.1562,-67.3828125,-726.07421875,-932.6171875,-72.75390625,NaN
1731719405750.0625,-10.7421875,-722.16796875,-892.08984375,-54.19921875,NaN
1731719405753.9688,-21.97265625,-143.06640625,-386.71875,-17.578125,NaN
1731719405757.875,-67.87109375,-138.671875,-379.39453125,-28.3203125,NaN
1731719405761.7812,-64.453125,-706.54296875,-868.65234375,-41.9921875,NaN
1731719405765.6875,-13.671875,-571.77734375,-837.890625,-24.4140625,NaN
1731719405769.5938,2.9296875,-114.2578125,-437.01171875,1.953125,NaN
1731719405773.5,-54.6875,-148.92578125,-355.46875,-22.4609375,NaN
1731719405777.4062,-75.1953125,-820.3125,-863.76953125,-51.7578125,NaN
1731719405781.3125,-28.3203125,-957.51953125,-1000,-46.875,NaN
1731719405785.2188,-9.765625,-117.67578125,-358.88671875,-32.2265625,NaN
1731719405789.125,-50.29296875,-50.29296875,-210.9375,-20.5078125,NaN
1731719405793.0312,-76.66015625,-828.125,-850.5859375,-42.48046875,NaN
1731719405796.9375,-43.9453125,-618.65234375,-791.015625,-70.3125,NaN
1731719405800.8438,-14.16015625,-74.21875,-381.34765625,-38.57421875,NaN
1731719405804.75,-31.25,-209.9609375,-380.37109375,-13.18359375,NaN
1731719405808.6562,-60.05859375,-743.1640625,-786.62109375,-27.83203125,NaN
1731719405812.5625,-53.22265625,-500.9765625,-702.1484375,-48.33984375,NaN
1731719405816.4688,-10.25390625,-166.015625,-473.6328125,-31.25,NaN
1731719405820.375,-0.48828125,-256.8359375,-424.31640625,7.8125,NaN
1731719405824.2812,-47.36328125,-645.01953125,-633.7890625,-8.7890625,NaN
1731719405828.1875,-70.3125,-705.078125,-755.37109375,-58.59375,NaN
1731719405832.0938,-20.99609375,-245.1171875,-488.28125,-52.734375,NaN
1731719405836,15.625,-420.41015625,-564.453125,5.37109375,NaN
1731719405839.9062,-23.4375,-839.84375,-852.05078125,14.6484375,NaN
1731719405843.8125,-62.5,-463.37890625,-643.06640625,-27.83203125,NaN
1731719405847.7188,-30.2734375,-244.140625,-502.9296875,-41.50390625,NaN
1731719405851.625,4.39453125,-583.984375,-691.89453125,-2.44140625,NaN
1731719405855.5312,-23.92578125,-315.91796875,-416.015625,-3.41796875,NaN
1731719405859.4375,-73.2421875,65.91796875,-140.13671875,-56.15234375,NaN
1731719405863.3438,-49.8046875,-130.37109375,-381.8359375,-69.3359375,NaN
1731719405867.25,3.41796875,-567.87109375,-709.9609375,-32.71484375,NaN
1731719405871.1562,-24.4140625,-572.75390625,-576.66015625,-1.46484375,NaN
1731719405875.0625,-84.9609375,-308.10546875,-344.23828125,-26.3671875,NaN
1731719405878.9688,-81.54296875,-241.69921875,-426.26953125,-83.49609375,NaN
1731719405882.875,-30.2734375,-739.2578125,-820.3125,-52.734375,NaN
1731719405886.7812,-20.01953125,-333.49609375,-381.34765625,8.30078125,NaN
1731719405890.6875,-59.5703125,280.2734375,94.23828125,-30.2734375,NaN
1731719405894.5938,-80.56640625,-174.31640625,-364.74609375,-79.1015625,NaN
1731719405898.5,-41.50390625,-608.88671875,-743.1640625,-77.63671875,NaN
1731719405902.4062,-18.5546875,-38.0859375,-229.00390625,-32.2265625,NaN
1731719405906.3125,-61.03515625,139.6484375,-11.23046875,-28.80859375,NaN
1731719405910.2188,-85.44921875,-566.40625,-615.234375,-61.03515625,NaN
1731719405914.125,-36.1328125,-823.73046875,-919.43359375,-53.7109375,NaN
1731719405918.0312,8.30078125,-550.78125,-636.71875,-17.08984375,NaN
1731719405921.9375,-19.53125,-121.58203125,-161.62109375,-1.953125,NaN
1731719405925.8438,-61.5234375,-254.39453125,-298.828125,-23.92578125,NaN
1731719405929.75,-31.73828125,-811.03515625,-864.2578125,-45.41015625,NaN
1731719405933.6562,15.13671875,-127.9296875,-353.515625,-38.57421875,NaN
1731719405937.5625,-5.859375,228.02734375,58.10546875,-29.296875,NaN
1731719405941.4688,-60.546875,-273.4375,-279.296875,-41.9921875,NaN
1731719405945.375,-63.4765625,-284.66796875,-383.30078125,-51.26953125,NaN
1731719405949.2812,-20.5078125,-71.77734375,-313.4765625,-40.52734375,NaN
1731719405953.1875,-19.53125,-52.24609375,-227.5390625,-17.578125,NaN
1731719405957.0938,-57.6171875,-260.7421875,-303.7109375,-9.765625,NaN
1731719405961,-66.40625,-308.59375,-416.015625,-39.55078125,NaN
1731719405964.9062,-39.55078125,-566.40625,-728.02734375,-59.08203125,NaN
1731719405968.8125,-14.16015625,-632.8125,-680.17578125,-40.0390625,NaN
1731719405972.7188,-41.9921875,-832.03125,-787.109375,-31.73828125,NaN
1731719405976.625,-97.16796875,-848.6328125,-901.85546875,-70.80078125,NaN
1731719405980.5312,-78.125,-255.859375,-493.1640625,-94.23828125,NaN
1731719405984.4375,-29.78515625,-67.3828125,-298.828125,-47.8515625,NaN
1731719405988.3438,-46.875,-147.4609375,-250.9765625,1.46484375,NaN
1731719405992.25,-93.75,-40.52734375,-184.5703125,-39.0625,NaN
1731719405996.1562,-84.9609375,47.36328125,-217.28515625,-88.8671875,NaN
1731719406000.0625,-20.01953125,-175.29296875,-415.0390625,-63.96484375,NaN
1731719406003.9688,-20.01953125,-120.60546875,-244.140625,-25.390625,NaN
1731719406007.875,-83.0078125,171.875,45.8984375,-40.0390625,NaN
1731719406011.7812,-82.51953125,-125.9765625,-246.09375,-75.1953125,NaN
1731719406015.6875,-21.484375,-562.98828125,-648.4375,-54.6875,NaN
1731719406019.5938,-6.34765625,-787.59765625,-824.70703125,-10.25390625,NaN
1731719406023.5,-59.5703125,-260.7421875,-296.38671875,-9.27734375,NaN
1731719406027.4062,-79.58984375,8.30078125,-166.50390625,-35.15625,NaN
1731719406031.3125,-28.80859375,-498.046875,-696.2890625,-66.40625,NaN
1731719406035.2188,3.90625,-263.671875,-407.2265625,-57.6171875,NaN
1731719406039.125,-35.64453125,384.27734375,212.40234375,-41.50390625,NaN
1731719406043.0312,-68.359375,182.6171875,3.90625,-56.15234375,NaN
1731719406046.9375,-16.6015625,-381.8359375,-565.4296875,-57.6171875,NaN
1731719406050.8438,24.4140625,-105.46875,-334.9609375,-41.015625,NaN
1731719406054.75,-27.34375,172.8515625,-21.484375,-44.921875,NaN
1731719406058.6562,-92.7734375,-543.9453125,-599.12109375,-59.08203125,NaN
1731719406062.5625,-76.171875,-954.1015625,-964.35546875,-53.22265625,NaN
1731719406066.4688,-20.99609375,-490.234375,-627.44140625,-25.87890625,NaN
1731719406070.375,-26.85546875,204.1015625,6.34765625,1.953125,NaN
1731719406074.2812,-76.66015625,229.4921875,90.33203125,-30.76171875,NaN
1731719406078.1875,-79.1015625,-605.95703125,-705.078125,-71.2890625,NaN
1731719406082.0938,-25.87890625,-670.8984375,-825.68359375,-46.38671875,NaN
1731719406086,-14.6484375,106.93359375,-116.69921875,-29.78515625,NaN
1731719406089.9062,-62.5,36.62109375,-110.3515625,-41.50390625,NaN
1731719406093.8125,-93.26171875,-617.1875,-667.96875,-61.5234375,NaN
1731719406097.7188,-65.91796875,-284.1796875,-478.02734375,-73.2421875,NaN
1731719406101.625,-21.484375,121.58203125,-133.7890625,-41.9921875,NaN
1731719406105.5312,-44.43359375,-377.9296875,-429.19921875,-19.04296875,NaN
1731719406109.4375,-88.37890625,-832.03125,-860.3515625,-44.921875,NaN
1731719406113.3438,-61.5234375,-404.296875,-624.51171875,-70.80078125,NaN
1731719406117.25,-6.34765625,93.75,-149.90234375,-52.734375,NaN
1731719406121.1562,-21.97265625,-148.4375,-264.6484375,-19.53125,NaN
1731719406125.0625,-73.2421875,-428.7109375,-503.41796875,-31.73828125,NaN
1731719406128.9688,-62.98828125,-298.828125,-506.8359375,-52.24609375,NaN
1731719406132.875,-12.20703125,-239.2578125,-488.28125,-34.66796875,NaN
1731719406136.7812,-26.85546875,-452.1484375,-515.13671875,-8.7890625,NaN
1731719406140.6875,-85.9375,-259.27734375,-302.24609375,-33.203125,NaN
1731719406144.5938,-84.47265625,1.953125,-232.91015625,-78.125,NaN
1731719406148.5,-28.3203125,-252.44140625,-510.25390625,-62.98828125,NaN
1731719406152.4062,-11.23046875,-816.89453125,-875,-34.66796875,NaN
1731719406156.3125,-64.94140625,-698.2421875,-723.14453125,-38.0859375,NaN
1731719406160.2188,-93.75,-354.98046875,-564.453125,-60.05859375,NaN
1731719406164.125,-54.19921875,-580.56640625,-833.984375,-83.0078125,NaN
1731719406168.0312,-8.30078125,-852.5390625,-937.5,-47.8515625,NaN
1731719406171.9375,-40.0390625,-463.37890625,-582.03125,-25.87890625,NaN
1731719406175.8438,-83.984375,-234.375,-497.0703125,-73.2421875,NaN
1731719406179.75,-58.10546875,-653.3203125,-896.97265625,-84.47265625,NaN
1731719406183.6562,-21.97265625,-836.9140625,-971.19140625,-50.78125,NaN
1731719406187.5625,-34.66796875,-304.6875,-492.1875,-26.3671875,NaN
1731719406191.4688,-79.1015625,-282.2265625,-516.6015625,-56.15234375,NaN
1731719406195.375,-64.453125,-818.84765625,-927.734375,-75.1953125,NaN
1731719406199.2812,-16.6015625,-1000,-1000,-46.38671875,NaN
1731719406203.1875,-13.18359375,-659.66796875,-777.34375,-14.16015625,NaN
1731719406207.0938,-57.6171875,-265.13671875,-520.99609375,-23.92578125,NaN
1731719406211,-84.47265625,-718.26171875,-889.6484375,-78.125,NaN
1731719406214.9062,-29.78515625,-1000,-1000,-72.75390625,NaN
1731719406218.8125,-5.37109375,-541.50390625,-733.88671875,-36.1328125,NaN
1731719406222.7188,-54.6875,-235.3515625,-518.06640625,-31.73828125,NaN
1731719406226.625,-81.54296875,-697.265625,-838.8671875,-43.9453125,NaN
1731719406230.5312,-51.7578125,-813.96484375,-1000,-58.59375,NaN
1731719406234.4375,-20.5078125,-476.5625,-861.328125,-54.6875,NaN
1731719406238.3438,-42.96875,-384.27734375,-682.6171875,-14.6484375,NaN
1731719406242.25,-83.49609375,-815.91796875,-908.203125,-26.3671875,NaN
1731719406246.1562,-67.87109375,-1000,-1000,-43.9453125,NaN
1731719406250.0625,-7.8125,-982.91015625,-984.375,-43.9453125,NaN
1731719406253.9688,-13.18359375,-936.03515625,-1000,-40.0390625,NaN
1731719406257.875,-72.265625,-959.9609375,-1000,-30.76171875,NaN
1731719406261.7812,-85.44921875,-1000,-1000,-73.2421875,NaN
1731719406265.6875,-39.0625,-918.45703125,-1000,-80.56640625,NaN
1731719406269.5938,-23.92578125,-864.74609375,-1000,-37.109375,NaN
1731719406273.5,-62.5,-826.66015625,-1000,-25.390625,NaN
1731719406277.4062,-74.70703125,-816.89453125,-1000,-47.8515625,NaN
1731719406281.3125,-32.71484375,-927.24609375,-1000,-62.5,NaN
1731719406285.2188,0.9765625,-956.0546875,-1000,-32.2265625,NaN
1731719406289.125,-39.0625,-953.61328125,-1000,-18.5546875,NaN
1731719406293.0312,-74.21875,-987.3046875,-1000,-41.015625,NaN
1731719406296.9375,-40.0390625,-1000,-999.51171875,-55.6640625,NaN
1731719406300.8438,5.859375,-1000,-1000,-23.4375,NaN
1731719406304.75,-9.27734375,-953.125,-992.67578125,-6.8359375,NaN
1731719406308.6562,-52.734375,-938.4765625,-991.2109375,-24.4140625,NaN
1731719406312.5625,-59.5703125,-1000,-1000,-38.57421875,NaN
1731719406316.4688,-16.11328125,-994.140625,-1000,-35.64453125,NaN
1731719406320.375,9.27734375,-792.48046875,-985.83984375,-3.90625,NaN
1731719406324.2812,-35.15625,-690.4296875,-990.234375,-4.8828125,NaN
1731719406328.1875,-66.89453125,-781.25,-1000,-52.734375,NaN
1731719406332.0938,-17.578125,-929.19921875,-1000,-46.875,NaN
1731719406336,18.5546875,-662.109375,-906.25,9.27734375,NaN
1731719406339.9062,-24.4140625,-750,-936.5234375,13.18359375,NaN
1731719406343.8125,-69.3359375,-1000,-1000,-37.109375,NaN
1731719406347.7188,-29.78515625,-1000,-1000,-41.50390625,NaN
1731719406351.625,10.7421875,-850.5859375,-988.76953125,-1.953125,NaN
1731719406355.5312,-20.01953125,-361.328125,-640.625,19.04296875,NaN
1731719406359.4375,-60.05859375,-301.7578125,-557.12890625,8.30078125,NaN
1731719406363.3438,-39.55078125,-575.68359375,-803.22265625,-28.3203125,NaN
1731719406367.25,13.18359375,-493.65234375,-708.984375,-36.1328125,NaN
1731719406371.1562,-9.27734375,55.6640625,-165.52734375,-4.8828125,NaN
1731719406375.0625,-60.05859375,21.484375,-150.87890625,-9.27734375,NaN
1731719406378.9688,-41.50390625,-637.6953125,-761.71875,-47.36328125,NaN
1731719406382.875,2.9296875,-317.87109375,-561.5234375,-39.55078125,NaN
1731719406386.7812,-8.7890625,-34.66796875,-197.265625,-4.8828125,NaN
1731719406390.6875,-55.17578125,-395.99609375,-415.0390625,-4.8828125,NaN
1731719406394.5938,-67.3828125,-757.8125,-813.4765625,-37.59765625,NaN
1731719406398.5,-13.18359375,-217.28515625,-498.53515625,-55.17578125,NaN
1731719406402.4062,12.6953125,236.81640625,-75.1953125,-17.578125,NaN
1731719406406.3125,-41.50390625,15.13671875,-129.8828125,-4.8828125,NaN
1731719406410.2188,-73.73046875,-91.30859375,-265.625,-44.43359375,NaN
1731719406414.125,-29.296875,39.55078125,-275.390625,-61.03515625,NaN
1731719406418.0312,5.859375,110.3515625,-189.453125,-25.390625,NaN
1731719406421.9375,-18.06640625,-126.46484375,-229.00390625,-8.7890625,NaN
1731719406425.8438,-60.546875,-277.34375,-360.83984375,-31.73828125,NaN
1731719406429.75,-60.05859375,-108.3984375,-345.21484375,-50.78125,NaN
1731719406433.6562,-12.6953125,-246.09375,-396.484375,-19.04296875,NaN
1731719406437.5625,-16.11328125,-718.26171875,-666.015625,11.71875,NaN
1731719406441.4688,-64.453125,-731.4453125,-735.3515625,-8.7890625,NaN
1731719406445.375,-60.546875,63.4765625,-151.3671875,-58.10546875,NaN
1731719406449.2812,-11.71875,-12.6953125,-255.37109375,-41.015625,NaN
1731719406453.1875,-2.44140625,-375.9765625,-445.3125,-1.46484375,NaN
1731719406457.0938,-42.96875,148.4375,90.8203125,-20.01953125,NaN
1731719406461,-75.1953125,285.64453125,109.375,-51.26953125,NaN
1731719406464.9062,-34.66796875,-58.10546875,-270.5078125,-41.015625,NaN
1731719406468.8125,6.34765625,-54.19921875,-190.91796875,-7.8125,NaN
1731719406472.7188,-26.85546875,306.15234375,196.2890625,1.46484375,NaN
1731719406476.625,-71.2890625,77.1484375,-57.12890625,-20.99609375,NaN
1731719406480.5312,-54.6875,-646.484375,-752.44140625,-42.48046875,NaN
1731719406484.4375,-6.8359375,-856.93359375,-854.4921875,-45.41015625,NaN
1731719406488.3438,-22.94921875,-336.42578125,-313.4765625,-34.66796875,NaN
1731719406492.25,-70.80078125,108.88671875,24.90234375,-50.78125,NaN
1731719406496.1562,-60.546875,-391.6015625,-473.14453125,-79.1015625,NaN
1731719406500.0625,-23.4375,-833.984375,-878.41796875,-67.87109375,NaN
1731719406503.9688,-30.2734375,-227.05078125,-341.30859375,-39.0625,NaN
1731719406507.875,-74.21875,79.1015625,-24.4140625,-56.640625,NaN
1731719406511.7812,-77.63671875,-487.79296875,-568.359375,-82.03125,NaN
1731719406515.6875,-19.04296875,-550.29296875,-709.47265625,-43.45703125,NaN
1731719406519.5938,-5.859375,12.6953125,-165.0390625,0.48828125,NaN
1731719406523.5,-53.22265625,111.328125,-10.25390625,-21.97265625,NaN
1731719406527.4062,-72.265625,-720.703125,-723.6328125,-62.01171875,NaN
1731719406531.3125,-31.73828125,-759.27734375,-793.9453125,-64.453125,NaN
1731719406535.2188,-2.9296875,-81.0546875,-217.7734375,-25.87890625,NaN
1731719406539.125,-34.1796875,-284.1796875,-290.52734375,-1.953125,NaN
1731719406543.0312,-73.73046875,-870.1171875,-831.0546875,-39.55078125,NaN
1731719406546.9375,-43.9453125,-741.2109375,-857.91015625,-54.6875,NaN
1731719406550.8438,12.20703125,-247.0703125,-465.33203125,-12.20703125,NaN
1731719406554.75,-13.18359375,-62.5,-176.26953125,-11.71875,NaN
1731719406558.6562,-67.3828125,-156.73828125,-199.21875,-34.66796875,NaN
1731719406562.5625,-48.828125,-134.27734375,-304.6875,-44.921875,NaN
1731719406566.4688,-4.39453125,-107.91015625,-338.8671875,-35.15625,NaN
1731719406570.375,-8.7890625,-171.875,-267.578125,-19.04296875,NaN
1731719406574.2812,-61.03515625,-447.265625,-384.27734375,-42.96875,NaN
1731719406578.1875,-84.9609375,-494.140625,-499.0234375,-59.08203125,NaN
1731719406582.0938,-34.66796875,25.87890625,-169.921875,-50.29296875,NaN
1731719406586,12.6953125,-18.06640625,-108.3984375,-10.25390625,NaN
1731719406589.9062,-39.0625,-598.14453125,-477.05078125,-24.4140625,NaN
1731719406593.8125,-94.23828125,-454.58984375,-447.75390625,-81.54296875,NaN
1731719406597.7188,-58.10546875,-229.00390625,-360.3515625,-73.73046875,NaN
1731719406601.625,-9.765625,-325.1953125,-396.97265625,-43.45703125,NaN
1731719406605.5312,-43.9453125,-161.62109375,-178.22265625,-47.8515625,NaN
1731719406609.4375,-96.6796875,151.85546875,18.5546875,-81.54296875,NaN
1731719406613.3438,-66.89453125,-69.82421875,-273.92578125,-95.21484375,NaN
1731719406617.25,-13.18359375,-303.7109375,-418.9453125,-51.7578125,NaN
1731719406621.1562,-34.1796875,-431.15234375,-406.25,-32.71484375,NaN
1731719406625.0625,-94.23828125,-145.01953125,-158.203125,-38.0859375,NaN
1731719406628.9688,-90.8203125,-105.46875,-255.37109375,-51.7578125,NaN
1731719406632.875,-13.18359375,-778.80859375,-843.26171875,-32.2265625,NaN
1731719406636.7812,-3.90625,-294.43359375,-348.6328125,-16.6015625,NaN
1731719406640.6875,-56.15234375,345.21484375,221.19140625,-22.4609375,NaN
1731719406644.5938,-48.828125,114.74609375,-32.2265625,-32.71484375,NaN
1731719406648.5,-10.25390625,-270.01953125,-428.22265625,-40.0390625,NaN
1731719406652.4062,7.32421875,-189.94140625,-281.73828125,16.6015625,NaN
1731719406656.3125,-28.80859375,125.48828125,50.78125,13.671875,NaN
1731719406660.2188,-64.453125,-221.19140625,-326.66015625,-51.7578125,NaN
1731719406664.125,-18.5546875,-756.8359375,-857.91015625,-44.43359375,NaN
1731719406668.0312,9.765625,-646.97265625,-703.61328125,3.41796875,NaN
1731719406671.9375,-33.203125,-239.74609375,-268.06640625,1.46484375,NaN
1731719406675.8438,-65.4296875,-270.5078125,-313.4765625,-35.15625,NaN
1731719406679.75,-42.48046875,-815.4296875,-861.328125,-57.12890625,NaN
1731719406683.6562,-5.37109375,-286.1328125,-488.76953125,-47.8515625,NaN
1731719406687.5625,-13.18359375,76.171875,-99.12109375,2.44140625,NaN
1731719406691.4688,-73.2421875,-284.1796875,-334.9609375,-15.625,NaN
1731719406695.375,-79.1015625,-391.11328125,-532.71484375,-64.94140625,NaN
1731719406699.2812,-20.01953125,-195.80078125,-460.9375,-63.4765625,NaN
1731719406703.1875,-14.16015625,-36.1328125,-232.421875,-40.52734375,NaN
1731719406707.0938,-68.359375,-417.96875,-439.453125,-32.71484375,NaN
1731719406711,-90.8203125,-737.79296875,-745.1171875,-58.59375,NaN
1731719406714.9062,-46.38671875,-658.69140625,-732.421875,-63.96484375,NaN
1731719406718.8125,-21.97265625,-479.98046875,-509.27734375,-39.55078125,NaN
1731719406722.7188,-53.7109375,-814.453125,-784.66796875,-15.625,NaN
1731719406726.625,-81.0546875,-893.5546875,-922.36328125,-41.9921875,NaN
1731719406730.5312,-53.7109375,-371.09375,-570.80078125,-68.84765625,NaN
1731719406734.4375,-20.01953125,-187.98828125,-407.71484375,-38.57421875,NaN
1731719406738.3438,-28.80859375,-387.6953125,-483.3984375,-24.4140625,NaN
1731719406742.25,-67.3828125,-147.94921875,-279.78515625,-27.83203125,NaN
1731719406746.1562,-64.94140625,-29.78515625,-257.32421875,-44.43359375,NaN
1731719406750.0625,-16.6015625,-166.50390625,-388.671875,-49.31640625,NaN
1731719406753.9688,-4.8828125,-173.828125,-304.19921875,-18.5546875,NaN
1731719406757.875,-46.38671875,-136.71875,-265.625,-20.99609375,NaN
1731719406761.7812,-62.98828125,-415.52734375,-537.109375,-61.5234375,NaN
1731719406765.6875,-12.6953125,-712.890625,-791.9921875,-58.59375,NaN
1731719406769.5938,6.34765625,-923.33984375,-937.5,-3.41796875,NaN
1731719406773.5,-47.36328125,-280.2734375,-342.7734375,-21.484375,NaN
1731719406777.4062,-72.265625,162.59765625,-21.97265625,-71.77734375,NaN
1731719406781.3125,-35.15625,-333.984375,-503.41796875,-67.87109375,NaN
1731719406785.2188,-8.30078125,-136.71875,-276.85546875,-27.34375,NaN
1731719406789.125,-40.0390625,455.56640625,290.0390625,-14.16015625,NaN
1731719406793.0312,-89.84375,314.94140625,150.390625,-49.8046875,NaN
1731719406796.9375,-58.59375,-284.66796875,-417.96875,-74.70703125,NaN
1731719406800.8438,3.41796875,-60.05859375,-221.6796875,-70.80078125,NaN
1731719406804.75,-29.296875,419.43359375,272.4609375,-53.7109375,NaN
1731719406808.6562,-76.171875,-140.625,-166.015625,-57.6171875,NaN
1731719406812.5625,-58.10546875,-905.2734375,-894.04296875,-66.40625,NaN
1731719406816.4688,-26.85546875,-543.9453125,-649.4140625,-65.4296875,NaN
1731719406820.375,-28.80859375,204.58984375,41.015625,-35.15625,NaN
1731719406824.2812,-83.984375,-94.23828125,-138.671875,-24.4140625,NaN
1731719406828.1875,-99.609375,-823.2421875,-834.9609375,-62.01171875,NaN
1731719406832.0938,-46.38671875,-502.44140625,-689.453125,-68.359375,NaN
1731719406836,-22.94921875,100.09765625,-131.34765625,-31.25,NaN
1731719406839.9062,-54.6875,-16.6015625,-123.53515625,-12.6953125,NaN
1731719406843.8125,-83.984375,-295.41015625,-391.11328125,-54.19921875,NaN
1731719406847.7188,-57.12890625,-72.265625,-326.171875,-78.125,NaN
1731719406851.625,-22.4609375,131.34765625,-137.6953125,-53.22265625,NaN
1731719406855.5312,-48.33984375,-315.91796875,-382.32421875,-23.92578125,NaN
1731719406859.4375,-90.8203125,-831.0546875,-870.60546875,-20.01953125,NaN
1731719406863.3438,-64.453125,-397.94921875,-641.11328125,-65.4296875,NaN
1731719406867.25,-19.53125,-114.2578125,-408.69140625,-54.19921875,NaN
1731719406871.1562,-48.828125,-292.96875,-435.546875,-34.66796875,NaN
1731719406875.0625,-91.796875,-296.38671875,-413.57421875,-75.68359375,NaN
1731719406878.9688,-65.91796875,-322.265625,-561.5234375,-99.609375,NaN
1731719406882.875,-2.9296875,-604.00390625,-814.453125,-68.359375,NaN
1731719406886.7812,-2.9296875,-788.57421875,-876.46484375,-20.99609375,NaN
1731719406890.6875,-64.94140625,-486.328125,-588.8671875,-26.85546875,NaN
1731719406894.5938,-92.7734375,-280.2734375,-527.83203125,-69.82421875,NaN
1731719406898.5,-37.109375,-575.1953125,-863.28125,-55.17578125,NaN
1731719406902.4062,-0.48828125,-942.3828125,-1000,-3.41796875,NaN
1731719406906.3125,-53.22265625,-841.796875,-839.84375,-16.11328125,NaN
1731719406910.2188,-88.37890625,-319.82421875,-505.859375,-48.828125,NaN
1731719406914.125,-45.41015625,-428.7109375,-671.38671875,-68.84765625,NaN
1731719406918.0312,-6.34765625,-900.390625,-965.8203125,-34.66796875,NaN
1731719406921.9375,-26.3671875,-458.0078125,-567.3828125,5.37109375,NaN
1731719406925.8438,-62.01171875,-125.9765625,-382.8125,-24.90234375,NaN
1731719406929.75,-51.7578125,-623.046875,-860.83984375,-57.12890625,NaN
1731719406933.6562,-12.6953125,-767.578125,-941.40625,-35.15625,NaN
1731719406937.5625,-5.37109375,-367.1875,-534.1796875,-3.41796875,NaN
1731719406941.4688,-59.5703125,-422.8515625,-626.46484375,-18.5546875,NaN
1731719406945.375,-79.1015625,-695.80078125,-919.43359375,-60.05859375,NaN
1731719406949.2812,-27.83203125,-999.51171875,-1000,-59.5703125,NaN
1731719406953.1875,-16.6015625,-833.0078125,-921.38671875,-21.484375,NaN
1731719406957.0938,-54.19921875,-429.6875,-726.07421875,-33.203125,NaN
1731719406961,-72.265625,-765.13671875,-900.390625,-72.75390625,NaN
1731719406964.9062,-41.015625,-1000,-1000,-78.61328125,NaN
1731719406968.8125,-27.34375,-677.24609375,-965.8203125,-57.6171875,NaN
1731719406972.7188,-68.359375,-545.41015625,-881.34765625,-43.45703125,NaN
1731719406976.625,-95.703125,-918.9453125,-969.23828125,-80.56640625,NaN
1731719406980.5312,-79.1015625,-965.8203125,-1000,-106.93359375,NaN
1731719406984.4375,-32.71484375,-456.0546875,-832.03125,-67.3828125,NaN
1731719406988.3438,-40.52734375,-389.16015625,-774.90234375,-32.2265625,NaN
1731719406992.25,-95.21484375,-886.23046875,-967.28515625,-53.22265625,NaN
1731719406996.1562,-73.73046875,-1000,-1000,-78.125,NaN
1731719407000.0625,-25.390625,-978.515625,-991.2109375,-58.10546875,NaN
1731719407003.9688,-39.55078125,-1000,-1000,-26.85546875,NaN
1731719407007.875,-81.0546875,-983.3984375,-997.0703125,-38.0859375,NaN
1731719407011.7812,-81.54296875,-1000,-1000,-66.89453125,NaN
1731719407015.6875,-24.4140625,-926.7578125,-1000,-62.01171875,NaN
1731719407019.5938,-2.9296875,-647.4609375,-922.8515625,-37.59765625,NaN
1731719407023.5,-41.9921875,-887.20703125,-961.9140625,-17.08984375,NaN
1731719407027.4062,-70.3125,-918.45703125,-1000,-34.1796875,NaN
1731719407031.3125,-44.43359375,-758.30078125,-996.09375,-51.7578125,NaN
1731719407035.2188,-15.625,-811.5234375,-1000,-40.0390625,NaN
1731719407039.125,-51.7578125,-804.19921875,-962.890625,-29.296875,NaN
1731719407043.0312,-94.23828125,-959.47265625,-983.88671875,-44.921875,NaN
1731719407046.9375,-64.453125,-960.44921875,-995.1171875,-62.01171875,NaN
1731719407050.8438,-18.06640625,-863.76953125,-1000,-22.4609375,NaN
1731719407054.75,-36.1328125,-969.23828125,-990.234375,-0.48828125,NaN
1731719407058.6562,-86.9140625,-561.03515625,-726.5625,-64.453125,NaN
1731719407062.5625,-79.58984375,-477.05078125,-840.33203125,-93.75,NaN
1731719407066.4688,-22.94921875,-834.9609375,-1000,-60.05859375,NaN
1731719407070.375,-22.4609375,-588.8671875,-717.28515625,-30.76171875,NaN
1731719407074.2812,-73.73046875,-315.91796875,-552.734375,-47.36328125,NaN
1731719407078.1875,-81.54296875,-531.25,-815.4296875,-76.171875,NaN
1731719407082.0938,-42.48046875,-822.265625,-972.65625,-61.5234375,NaN
1731719407086,-33.203125,-526.3671875,-685.546875,-25.87890625,NaN
1731719407089.9062,-75.1953125,-456.0546875,-581.0546875,-22.94921875,NaN
1731719407093.8125,-93.75,-768.5546875,-819.3359375,-60.546875,NaN
1731719407097.7188,-52.24609375,-952.1484375,-987.3046875,-65.4296875,NaN
1731719407101.625,-14.6484375,-607.421875,-731.93359375,-31.25,NaN
1731719407105.5312,-38.57421875,37.109375,-209.47265625,-7.8125,NaN
1731719407109.4375,-71.2890625,-104.98046875,-275.390625,-17.08984375,NaN
1731719407113.3438,-34.1796875,-776.3671875,-865.234375,-13.18359375,NaN
1731719407117.25,10.25390625,-241.69921875,-481.4453125,15.13671875,NaN
1731719407121.1562,-2.44140625,320.3125,40.0390625,15.625,NaN
1731719407125.0625,-45.8984375,11.23046875,-178.7109375,-16.11328125,NaN
1731719407128.9688,-48.33984375,-350.5859375,-546.38671875,-53.7109375,NaN
1731719407132.875,2.9296875,-291.015625,-567.87109375,-42.96875,NaN
1731719407136.7812,0.48828125,-344.23828125,-504.39453125,-10.7421875,NaN
1731719407140.6875,-47.36328125,-618.1640625,-632.32421875,-24.4140625,NaN
1731719407144.5938,-57.12890625,-920.41015625,-949.70703125,-46.875,NaN
1731719407148.5,-24.90234375,-461.42578125,-679.19921875,-46.875,NaN
1731719407152.4062,3.90625,117.1875,-137.6953125,-10.25390625,NaN
1731719407156.3125,-26.3671875,-64.94140625,-174.31640625,1.953125,NaN
1731719407160.2188,-71.2890625,-181.15234375,-327.63671875,-26.3671875,NaN
1731719407164.125,-42.48046875,-274.4140625,-536.1328125,-31.25,NaN
1731719407168.0312,6.34765625,-525.390625,-697.75390625,-1.46484375,NaN
1731719407171.9375,-13.671875,-646.484375,-648.4375,13.671875,NaN
1731719407175.8438,-69.82421875,-464.84375,-496.58203125,-12.20703125,NaN
1731719407179.75,-68.84765625,-214.84375,-430.17578125,-62.01171875,NaN
1731719407183.6562,-13.18359375,-460.44921875,-622.55859375,-43.9453125,NaN
1731719407187.5625,-4.39453125,-819.3359375,-795.8984375,6.8359375,NaN
1731719407191.4688,-50.78125,-469.23828125,-504.39453125,-19.04296875,NaN
1731719407195.375,-53.7109375,42.96875,-166.015625,-49.8046875,NaN
1731719407199.2812,-13.18359375,-106.4453125,-348.14453125,-25.87890625,NaN
1731719407203.1875,-1.46484375,-358.88671875,-437.01171875,4.39453125,NaN
1731719407207.0938,-52.734375,165.52734375,74.21875,-19.04296875,NaN
1731719407211,-82.51953125,294.43359375,71.2890625,-66.89453125,NaN
1731719407214.9062,-40.52734375,-0.9765625,-241.69921875,-72.75390625,NaN
1731719407218.8125,-16.6015625,49.8046875,-132.8125,-33.69140625,NaN
1731719407222.7188,-56.640625,348.14453125,225.09765625,-17.578125,NaN
1731719407226.625,-91.30859375,163.57421875,76.171875,-42.96875,NaN
1731719407230.5312,-61.03515625,-308.10546875,-404.296875,-65.4296875,NaN
1731719407234.4375,-9.765625,-188.4765625,-297.36328125,-48.828125,NaN
1731719407238.3438,-20.99609375,453.61328125,295.41015625,-16.6015625,NaN
1731719407242.25,-69.3359375,445.80078125,244.140625,-40.52734375,NaN
1731719407246.1562,-60.546875,-161.1328125,-331.0546875,-75.68359375,NaN
1731719407250.0625,-7.8125,-918.45703125,-951.171875,-31.73828125,NaN
1731719407253.9688,-33.203125,-312.5,-433.59375,-5.859375,NaN
1731719407257.875,-78.61328125,118.1640625,-69.3359375,-26.3671875,NaN
1731719407261.7812,-70.3125,-705.56640625,-803.7109375,-49.8046875,NaN
1731719407265.6875,-27.83203125,-711.9140625,-891.6015625,-56.15234375,NaN
1731719407269.5938,-4.39453125,-89.84375,-322.265625,-19.04296875,NaN
1731719407273.5,-44.921875,-100.5859375,-248.53515625,-1.46484375,NaN
1731719407277.4062,-63.96484375,-731.93359375,-770.01953125,-20.5078125,NaN
1731719407281.3125,-25.87890625,-1000,-1000,-37.59765625,NaN
1731719407285.2188,-8.30078125,-643.5546875,-729.98046875,-20.5078125,NaN
1731719407289.125,-40.0390625,-187.98828125,-301.26953125,-8.7890625,NaN
1731719407293.0312,-63.96484375,-796.875,-809.08203125,-26.3671875,NaN
1731719407296.9375,-38.57421875,-887.6953125,-972.16796875,-44.43359375,NaN
1731719407300.8438,0,-207.03125,-445.80078125,-31.25,NaN
1731719407304.75,-19.53125,16.11328125,-137.6953125,-17.578125,NaN
1731719407308.6562,-60.546875,-253.90625,-315.91796875,-45.8984375,NaN
1731719407312.5625,-46.875,-330.078125,-526.85546875,-64.94140625,NaN
1731719407316.4688,1.953125,-75.68359375,-352.5390625,-45.41015625,NaN
1731719407320.375,8.30078125,89.84375,-76.171875,-15.13671875,NaN
1731719407324.2812,-47.8515625,-389.16015625,-390.13671875,-22.94921875,NaN
1731719407328.1875,-79.58984375,-607.421875,-680.6640625,-56.15234375,NaN
1731719407332.0938,-39.55078125,-89.35546875,-348.14453125,-59.08203125,NaN
1731719407336,-17.578125,-260.7421875,-415.52734375,-38.57421875,NaN
1731719407339.9062,-55.6640625,-883.7890625,-882.8125,-30.76171875,NaN
1731719407343.8125,-99.12109375,-418.9453125,-541.9921875,-58.59375,NaN
1731719407347.7188,-55.17578125,-41.9921875,-301.7578125,-71.2890625,NaN
1731719407351.625,-3.90625,-334.9609375,-486.81640625,-40.52734375,NaN
1731719407355.5312,-42.48046875,-145.99609375,-229.4921875,-14.6484375,NaN
1731719407359.4375,-78.125,109.375,-65.91796875,-40.0390625,NaN
1731719407363.3438,-53.7109375,-321.2890625,-572.75390625,-70.3125,NaN
1731719407367.25,-2.44140625,-645.01953125,-811.03515625,-42.48046875,NaN
1731719407371.1562,-6.34765625,-570.80078125,-594.23828125,-18.06640625,NaN
1731719407375.0625,-50.78125,-816.89453125,-841.796875,-27.34375,NaN
1731719407378.9688,-45.41015625,-589.84375,-753.41796875,-48.33984375,NaN
1731719407382.875,3.90625,-786.1328125,-868.1640625,-32.2265625,NaN
1731719407386.7812,15.13671875,-663.57421875,-726.07421875,-11.23046875,NaN
1731719407390.6875,-38.0859375,-72.75390625,-252.44140625,-33.203125,NaN
1731719407394.5938,-60.05859375,-382.32421875,-542.48046875,-56.15234375,NaN
1731719407398.5,-21.97265625,-813.4765625,-912.59765625,-57.6171875,NaN
1731719407402.4062,-4.39453125,-403.80859375,-572.265625,-38.0859375,NaN
1731719407406.3125,-41.015625,28.3203125,-171.875,-37.59765625,NaN
1731719407410.2188,-72.75390625,-188.4765625,-344.23828125,-58.10546875,NaN
1731719407414.125,-48.33984375,-830.56640625,-920.41015625,-68.84765625,NaN
1731719407418.0312,0,-924.8046875,-996.09375,-51.26953125,NaN
1731719407421.9375,-18.5546875,-381.8359375,-451.171875,-41.015625,NaN
1731719407425.8438,-87.890625,-271.484375,-362.79296875,-78.125,NaN
1731719407429.75,-69.82421875,-921.875,-954.1015625,-91.796875,NaN
1731719407433.6562,-12.6953125,-550.78125,-732.421875,-67.87109375,NaN
1731719407437.5625,-40.0390625,-62.5,-296.875,-43.9453125,NaN
1731719407441.4688,-89.35546875,-350.5859375,-448.73046875,-55.17578125,NaN
1731719407445.375,-73.2421875,-584.9609375,-763.18359375,-58.59375,NaN
1731719407449.2812,-23.4375,-416.9921875,-721.6796875,-44.921875,NaN
1731719407453.1875,-17.08984375,-299.31640625,-478.02734375,-23.4375,NaN
1731719407457.0938,-47.8515625,-687.98828125,-702.1484375,-23.4375,NaN
1731719407461,-61.03515625,-619.140625,-727.5390625,-34.66796875,NaN
1731719407464.9062,-18.06640625,-558.59375,-742.1875,-15.13671875,NaN
1731719407468.8125,5.37109375,-741.69921875,-843.75,-10.7421875,NaN
1731719407472.7188,-25.87890625,-848.6328125,-860.3515625,-15.625,NaN
1731719407476.625,-62.5,-743.65234375,-855.95703125,-40.0390625,NaN
1731719407480.5312,-51.7578125,-370.1171875,-647.94921875,-60.05859375,NaN
1731719407484.4375,-4.8828125,-169.921875,-411.62109375,-20.5078125,NaN
1731719407488.3438,-17.578125,-187.01171875,-284.66796875,1.46484375,NaN
1731719407492.25,-66.40625,-67.3828125,-208.49609375,-38.57421875,NaN
1731719407496.1562,-58.59375,-122.55859375,-397.94921875,-47.8515625,NaN
1731719407500.0625,-3.41796875,-316.89453125,-580.078125,-31.25,NaN
1731719407503.9688,0,-206.54296875,-353.515625,-13.18359375,NaN
1731719407507.875,-64.94140625,-176.26953125,-314.94140625,-23.4375,NaN
1731719407511.7812,-73.73046875,-572.265625,-714.35546875,-69.3359375,NaN
1731719407515.6875,-11.23046875,-836.42578125,-937.98828125,-61.5234375,NaN
1731719407519.5938,0,-954.58984375,-974.609375,-18.06640625,NaN
1731719407523.5,-62.5,-307.6171875,-407.71484375,-39.55078125,NaN
1731719407527.4062,-86.42578125,59.5703125,-154.296875,-69.3359375,NaN
1731719407531.3125,-44.43359375,-370.1171875,-576.66015625,-66.89453125,NaN
1731719407535.2188,-14.6484375,-302.24609375,-505.859375,-43.9453125,NaN
1731719407539.125,-49.31640625,114.74609375,-101.07421875,-17.08984375,NaN
1731719407543.0312,-86.9140625,-47.36328125,-266.6015625,-27.83203125,NaN
1731719407546.9375,-57.12890625,-700.68359375,-859.375,-43.9453125,NaN
1731719407550.8438,-2.44140625,-369.140625,-579.58984375,-22.4609375,NaN
1731719407554.75,-21.97265625,267.578125,35.15625,0,NaN
1731719407558.6562,-77.63671875,-330.56640625,-431.15234375,-39.0625,NaN
1731719407562.5625,-58.10546875,-958.49609375,-987.3046875,-65.91796875,NaN
1731719407566.4688,13.18359375,-781.25,-870.1171875,-36.62109375,NaN
1731719407570.375,17.08984375,-390.13671875,-518.06640625,4.8828125,NaN
1731719407574.2812,-36.62109375,-204.1015625,-320.80078125,5.859375,NaN
1731719407578.1875,-48.33984375,-726.5625,-791.50390625,-17.578125,NaN
1731719407582.0938,-2.44140625,-410.64453125,-623.53515625,-21.484375,NaN
1731719407586,25.390625,115.72265625,-166.015625,15.13671875,NaN
1731719407589.9062,-7.32421875,14.6484375,-158.69140625,28.3203125,NaN
1731719407593.8125,-34.1796875,-379.8828125,-537.109375,-6.8359375,NaN
1731719407597.7188,2.9296875,-353.515625,-622.55859375,-9.765625,NaN
1731719407601.625,41.50390625,-138.18359375,-396.97265625,23.92578125,NaN
1731719407605.5312,11.71875,-534.1796875,-620.1171875,31.25,NaN
1731719407609.4375,-30.2734375,-976.07421875,-987.3046875,-0.48828125,NaN
1731719407613.3438,-13.18359375,-732.421875,-925.29296875,-18.5546875,NaN
1731719407617.25,44.43359375,-269.04296875,-572.75390625,8.30078125,NaN
1731719407621.1562,54.19921875,-338.8671875,-498.53515625,42.96875,NaN
1731719407625.0625,2.44140625,-770.01953125,-770.99609375,27.34375,NaN
1731719407628.9688,-4.39453125,-662.59765625,-738.28125,6.34765625,NaN
1731719407632.875,50.78125,-204.1015625,-424.31640625,26.3671875,NaN
1731719407636.7812,60.05859375,-310.546875,-400.87890625,60.546875,NaN
1731719407640.6875,12.20703125,-388.18359375,-412.59765625,65.91796875,NaN
1731719407644.5938,4.8828125,-253.90625,-430.6640625,30.76171875,NaN
1731719407648.5,54.6875,-375.48828125,-638.671875,15.625,NaN
1731719407652.4062,85.44921875,-765.625,-839.35546875,52.24609375,NaN
1731719407656.3125,45.41015625,-655.76171875,-638.18359375,70.3125,NaN
1731719407660.2188,7.8125,-340.8203125,-480.95703125,33.203125,NaN
1731719407664.125,40.0390625,-573.73046875,-779.78515625,27.83203125,NaN
1731719407668.0312,89.35546875,-876.46484375,-942.87109375,68.84765625,NaN
1731719407671.9375,66.40625,-478.515625,-545.8984375,76.66015625,NaN
1731719407675.8438,14.6484375,6.34765625,-193.84765625,40.52734375,NaN
1731719407679.75,40.0390625,-277.34375,-466.30859375,27.83203125,NaN
1731719407683.6562,92.7734375,-806.640625,-890.13671875,44.43359375,NaN
1731719407687.5625,80.56640625,-304.6875,-433.10546875,57.12890625,NaN
1731719407691.4688,32.71484375,157.2265625,-49.8046875,46.38671875,NaN
1731719407695.375,31.25,-227.05078125,-426.26953125,40.52734375,NaN
1731719407699.2812,70.80078125,-867.1875,-923.828125,51.7578125,NaN
1731719407703.1875,83.984375,-630.37109375,-677.24609375,48.828125,NaN
1731719407707.0938,40.0390625,26.3671875,-145.01953125,46.38671875,NaN
1731719407711,12.20703125,-268.06640625,-408.203125,32.71484375,NaN
1731719407714.9062,54.6875,-738.28125,-850.5859375,4.39453125,NaN
1731719407718.8125,85.44921875,-209.9609375,-432.12890625,6.34765625,NaN
1731719407722.7188,49.8046875,40.52734375,-154.296875,24.90234375,NaN
1731719407726.625,8.30078125,-367.1875,-478.515625,11.71875,NaN
1731719407730.5312,9.765625,-373.046875,-580.56640625,2.44140625,NaN
1731719407734.4375,39.55078125,30.2734375,-252.9296875,37.109375,NaN
1731719407738.3438,32.71484375,-26.3671875,-166.50390625,75.1953125,NaN
1731719407742.25,-11.23046875,-646.484375,-644.04296875,38.0859375,NaN
1731719407746.1562,2.9296875,-965.8203125,-1000,7.8125,NaN
1731719407750.0625,51.7578125,-483.88671875,-653.80859375,15.625,NaN
1731719407753.9688,54.6875,172.8515625,9.27734375,34.1796875,NaN
1731719407757.875,25.390625,-520.5078125,-519.04296875,48.828125,NaN
1731719407761.7812,11.71875,-621.58203125,-668.9453125,10.7421875,NaN
1731719407765.6875,48.33984375,121.09375,-86.9140625,-2.44140625,NaN
1731719407769.5938,79.1015625,95.21484375,-59.5703125,35.15625,NaN
1731719407773.5,29.78515625,-72.75390625,-107.91015625,36.62109375,NaN
1731719407777.4062,-18.5546875,107.421875,-21.97265625,3.90625,NaN
1731719407781.3125,19.53125,113.28125,-131.34765625,-4.39453125,NaN
1731719407785.2188,57.12890625,-87.890625,-264.6484375,17.578125,NaN
1731719407789.125,27.34375,-170.8984375,-242.67578125,29.296875,NaN
1731719407793.0312,-21.97265625,-521.97265625,-568.84765625,15.13671875,NaN
1731719407796.9375,-8.30078125,-846.6796875,-936.03515625,-4.39453125,NaN
1731719407800.8438,36.1328125,-795.41015625,-877.9296875,-15.625,NaN
1731719407804.75,20.01953125,-923.828125,-933.10546875,-1.46484375,NaN
1731719407808.6562,-40.52734375,-422.8515625,-512.20703125,-22.94921875,NaN
1731719407812.5625,-44.43359375,-82.51953125,-294.43359375,-65.91796875,NaN
1731719407816.4688,9.765625,-407.71484375,-590.33203125,-39.0625,NaN
1731719407820.375,11.71875,-364.74609375,-504.39453125,-1.46484375,NaN
1731719407824.2812,-46.38671875,30.76171875,-135.25390625,-25.87890625,NaN
1731719407828.1875,-59.5703125,-45.8984375,-257.8125,-35.15625,NaN
1731719407832.0938,-18.5546875,-477.05078125,-679.19921875,-32.71484375,NaN
1731719407836,6.8359375,-392.578125,-533.203125,-24.90234375,NaN
1731719407839.9062,-28.80859375,-245.60546875,-292.48046875,-14.16015625,NaN
1731719407843.8125,-58.59375,-649.4140625,-703.125,-22.94921875,NaN
1731719407847.7188,-20.5078125,-958.49609375,-1000,-20.99609375,NaN
1731719407851.625,19.53125,-580.078125,-656.25,-3.90625,NaN
1731719407855.5312,-4.39453125,-175.29296875,-282.71484375,10.7421875,NaN
1731719407859.4375,-59.5703125,-117.1875,-233.3984375,-14.16015625,NaN
1731719407863.3438,-52.734375,-635.7421875,-728.515625,-51.7578125,NaN
1731719407867.25,-2.9296875,-363.28125,-558.10546875,-42.48046875,NaN
1731719407871.1562,-6.8359375,209.9609375,4.39453125,-7.32421875,NaN
1731719407875.0625,-52.24609375,102.5390625,-30.76171875,-21.97265625,NaN
1731719407878.9688,-43.45703125,-224.12109375,-405.76171875,-44.921875,NaN
1731719407882.875,-2.44140625,-209.47265625,-468.26171875,-34.1796875,NaN
1731719407886.7812,8.7890625,-231.93359375,-371.58203125,-5.859375,NaN
1731719407890.6875,-33.203125,-448.2421875,-451.66015625,-15.625,NaN
1731719407894.5938,-54.6875,-778.80859375,-820.80078125,-48.828125,NaN
1731719407898.5,-13.18359375,-422.36328125,-674.8046875,-47.36328125,NaN
1731719407902.4062,9.27734375,26.3671875,-275.390625,-21.97265625,NaN
1731719407906.3125,-31.73828125,-151.85546875,-328.125,-13.671875,NaN
1731719407910.2188,-73.73046875,-448.2421875,-591.30859375,-40.52734375,NaN
1731719407914.125,-39.55078125,-632.8125,-872.55859375,-80.56640625,NaN
1731719407918.0312,12.6953125,-256.34765625,-583.0078125,-46.38671875,NaN
1731719407921.9375,-12.6953125,-395.01953125,-531.25,-4.8828125,NaN
1731719407925.8438,-56.640625,-524.90234375,-669.921875,-30.76171875,NaN
1731719407929.75,-32.2265625,-448.2421875,-767.08984375,-42.48046875,NaN
1731719407933.6562,18.06640625,-848.14453125,-995.1171875,-7.8125,NaN
1731719407937.5625,17.08984375,-938.96484375,-960.9375,19.04296875,NaN
1731719407941.4688,-31.25,-532.2265625,-638.671875,-3.90625,NaN
1731719407945.375,-34.1796875,-196.2890625,-476.07421875,-46.875,NaN
1731719407949.2812,7.8125,-461.42578125,-764.6484375,-30.2734375,NaN
1731719407953.1875,23.4375,-682.6171875,-836.42578125,32.2265625,NaN
1731719407957.0938,-13.18359375,-344.7265625,-525.390625,16.6015625,NaN
1731719407961,-31.73828125,-223.6328125,-517.08984375,-41.50390625,NaN
1731719407964.9062,-0.9765625,-557.6171875,-855.46875,-52.734375,NaN
1731719407968.8125,20.01953125,-763.671875,-906.73828125,-11.23046875,NaN
1731719407972.7188,-3.41796875,-156.73828125,-302.734375,12.6953125,NaN
1731719407976.625,-46.875,-114.2578125,-373.53515625,-21.484375,NaN
1731719407980.5312,-26.85546875,-808.10546875,-956.54296875,-43.45703125,NaN
1731719407984.4375,17.578125,-1000,-1000,-13.18359375,NaN
1731719407988.3438,-17.578125,-441.40625,-541.9921875,-2.9296875,NaN
1731719407992.25,-64.453125,-24.4140625,-242.67578125,-46.38671875,NaN
1731719407996.1562,-44.43359375,-319.3359375,-570.80078125,-72.265625,NaN
1731719408000.0625,0,-437.98828125,-698.73046875,-38.0859375,NaN
1731719408003.9688,-7.8125,23.92578125,-213.8671875,-13.671875,NaN
1731719408007.875,-57.6171875,147.4609375,-52.24609375,-28.3203125,NaN
1731719408011.7812,-66.89453125,-477.5390625,-651.3671875,-39.0625,NaN
1731719408015.6875,-23.4375,-696.2890625,-950.68359375,-37.59765625,NaN
1731719408019.5938,-12.20703125,-269.04296875,-540.0390625,-20.01953125,NaN
1731719408023.5,-49.8046875,-135.25390625,-315.91796875,-2.44140625,NaN
1731719408027.4062,-71.2890625,-745.60546875,-805.17578125,-15.13671875,NaN
1731719408031.3125,-35.15625,-1000,-1000,-32.2265625,NaN
1731719408035.2188,2.44140625,-648.92578125,-797.8515625,-9.765625,NaN
1731719408039.125,-14.16015625,-210.44921875,-406.25,-4.8828125,NaN
1731719408043.0312,-38.57421875,-750,-791.50390625,-30.76171875,NaN
1731719408046.9375,-33.203125,-1000,-1000,-35.15625,NaN
1731719408050.8438,-5.859375,-323.73046875,-542.48046875,-23.4375,NaN
1731719408054.75,-18.06640625,20.99609375,-202.63671875,-6.8359375,NaN
1731719408058.6562,-52.734375,-332.51953125,-453.61328125,-13.671875,NaN
1731719408062.5625,-36.62109375,-353.515625,-580.56640625,-46.38671875,NaN
1731719408066.4688,2.9296875,-142.578125,-450.1953125,-40.0390625,NaN
1731719408070.375,-0.9765625,-242.67578125,-458.0078125,-25.87890625,NaN
1731719408074.2812,-42.48046875,-768.5546875,-804.6875,-19.53125,NaN
1731719408078.1875,-54.6875,-856.93359375,-954.58984375,-27.34375,NaN
1731719408082.0938,-3.41796875,-458.49609375,-701.171875,-32.2265625,NaN
1731719408086,22.4609375,-493.1640625,-603.02734375,-6.34765625,NaN
1731719408089.9062,-14.16015625,-933.59375,-927.24609375,19.04296875,NaN
1731719408093.8125,-58.59375,-439.453125,-570.3125,-23.92578125,NaN
1731719408097.7188,-34.66796875,-218.26171875,-498.046875,-73.73046875,NaN
1731719408101.625,15.13671875,-531.73828125,-747.55859375,-22.4609375,NaN
1731719408105.5312,-3.90625,-258.30078125,-387.6953125,9.27734375,NaN
1731719408109.4375,-47.8515625,-101.5625,-284.1796875,-24.4140625,NaN
1731719408113.3438,-39.0625,-459.47265625,-709.9609375,-64.453125,NaN
1731719408117.25,6.8359375,-855.46875,-996.09375,-39.55078125,NaN
1731719408121.1562,9.765625,-826.171875,-863.28125,19.04296875,NaN
1731719408125.0625,-34.66796875,-693.84765625,-743.65234375,1.953125,NaN
1731719408128.9688,-37.109375,-666.50390625,-834.47265625,-46.38671875,NaN
1731719408132.875,5.859375,-945.3125,-1000,-27.34375,NaN
1731719408136.7812,1.46484375,-730.46875,-790.0390625,5.37109375,NaN
1731719408140.6875,-49.8046875,-565.91796875,-684.08203125,-12.6953125,NaN
1731719408144.5938,-62.01171875,-994.140625,-985.83984375,-43.9453125,NaN
1731719408148.5,-8.30078125,-954.1015625,-991.69921875,-33.203125,NaN
1731719408152.4062,14.16015625,-525.87890625,-714.35546875,-12.20703125,NaN
1731719408156.3125,-31.73828125,-304.6875,-474.12109375,-20.01953125,NaN
1731719408160.2188,-72.265625,-458.984375,-604.4921875,-38.57421875,NaN
1731719408164.125,-45.41015625,-640.625,-855.95703125,-52.24609375,NaN
1731719408168.0312,6.34765625,-664.0625,-826.171875,-39.55078125,NaN
1731719408171.9375,-12.6953125,-456.54296875,-548.33984375,-16.11328125,NaN
1731719408175.8438,-62.5,-474.609375,-565.91796875,-34.1796875,NaN
1731719408179.75,-49.31640625,-870.1171875,-924.31640625,-44.43359375,NaN
1731719408183.6562,-3.90625,-390.625,-610.83984375,-21.97265625,NaN
1731719408187.5625,-6.34765625,25.87890625,-232.91015625,-7.8125,NaN
1731719408191.4688,-56.640625,-330.56640625,-470.21484375,-41.50390625,NaN
1731719408195.375,-74.70703125,-668.9453125,-832.51953125,-70.80078125,NaN
1731719408199.2812,-24.4140625,-705.56640625,-906.25,-42.48046875,NaN
1731719408203.1875,-4.39453125,-285.15625,-473.6328125,-20.5078125,NaN
1731719408207.0938,-40.0390625,-476.5625,-555.17578125,-15.13671875,NaN
1731719408211,-70.80078125,-738.76953125,-862.79296875,-32.71484375,NaN
1731719408214.9062,-40.0390625,-683.59375,-859.86328125,-55.17578125,NaN
1731719408218.8125,6.34765625,-691.89453125,-780.2734375,-13.18359375,NaN
1731719408222.7188,-9.27734375,-827.1484375,-837.890625,10.7421875,NaN
1731719408226.625,-58.59375,-589.35546875,-674.8046875,-35.64453125,NaN
1731719408230.5312,-46.38671875,-117.1875,-387.20703125,-68.359375,NaN
1731719408234.4375,6.34765625,-201.171875,-453.61328125,-43.9453125,NaN
1731719408238.3438,-8.30078125,-375,-486.328125,-7.32421875,NaN
1731719408242.25,-61.03515625,-134.765625,-293.45703125,-20.5078125,NaN
1731719408246.1562,-69.3359375,3.41796875,-276.3671875,-63.4765625,NaN
1731719408250.0625,-18.06640625,-189.453125,-476.07421875,-36.1328125,NaN
1731719408253.9688,2.44140625,-444.3359375,-591.796875,6.34765625,NaN
1731719408257.875,-32.71484375,-525.87890625,-574.70703125,-27.34375,NaN
1731719408261.7812,-31.73828125,-529.296875,-611.81640625,-43.9453125,NaN
1731719408265.6875,-1.953125,-680.6640625,-811.5234375,-31.73828125,NaN
1731719408269.5938,4.8828125,-932.12890625,-969.7265625,-20.01953125,NaN
1731719408273.5,-36.1328125,-389.6484375,-478.02734375,-14.6484375,NaN
1731719408277.4062,-69.3359375,-90.8203125,-350.5859375,-43.45703125,NaN
1731719408281.3125,-48.828125,-584.47265625,-844.7265625,-64.453125,NaN
1731719408285.2188,-13.671875,-407.71484375,-634.27734375,-19.04296875,NaN
1731719408289.125,-42.48046875,60.05859375,-162.59765625,-2.9296875,NaN
1731719408293.0312,-82.51953125,-61.03515625,-280.76171875,-38.0859375,NaN
1731719408296.9375,-52.24609375,-359.86328125,-579.58984375,-55.17578125,NaN
1731719408300.8438,-1.46484375,-138.671875,-411.62109375,-41.9921875,NaN
1731719408304.75,-14.6484375,383.7890625,121.09375,-8.30078125,NaN
1731719408308.6562,-60.546875,-100.5859375,-233.88671875,-21.484375,NaN
1731719408312.5625,-48.33984375,-936.03515625,-957.03125,-56.15234375,NaN
1731719408316.4688,15.625,-879.39453125,-979.4921875,-18.06640625,NaN
1731719408320.375,28.3203125,-176.26953125,-425.29296875,1.953125,NaN
1731719408324.2812,-21.484375,-49.31640625,-254.39453125,-10.7421875,NaN
1731719408328.1875,-28.80859375,-801.26953125,-861.328125,-18.06640625,NaN
1731719408332.0938,0.48828125,-800.29296875,-1000,-40.0390625,NaN
1731719408336,12.20703125,-248.53515625,-579.58984375,-14.6484375,NaN
1731719408339.9062,-22.94921875,-151.3671875,-357.421875,-8.30078125,NaN
1731719408343.8125,-71.2890625,-711.9140625,-863.28125,-54.6875,NaN
1731719408347.7188,-49.8046875,-716.30859375,-1000,-58.10546875,NaN
1731719408351.625,0,-370.60546875,-684.5703125,-20.01953125,NaN
1731719408355.5312,-22.4609375,-620.60546875,-745.60546875,1.46484375,NaN
1731719408359.4375,-75.68359375,-992.1875,-994.140625,-45.8984375,NaN
1731719408363.3438,-64.453125,-848.6328125,-1000,-78.125,NaN
1731719408367.25,-23.92578125,-566.89453125,-838.8671875,-49.31640625,NaN
1731719408371.1562,-34.66796875,-702.63671875,-800.78125,-21.97265625,NaN
1731719408375.0625,-86.9140625,-713.8671875,-769.53125,-50.29296875,NaN
1731719408378.9688,-82.03125,-487.3046875,-717.7734375,-74.70703125,NaN
1731719408382.875,-27.34375,-480.46875,-775.390625,-63.4765625,NaN
1731719408386.7812,-22.94921875,-579.1015625,-743.1640625,-49.31640625,NaN
1731719408390.6875,-76.66015625,-354.98046875,-491.2109375,-43.9453125,NaN
1731719408394.5938,-97.65625,-288.57421875,-547.36328125,-82.51953125,NaN
1731719408398.5,-48.828125,-449.70703125,-772.94921875,-81.54296875,NaN
1731719408402.4062,-20.5078125,-844.7265625,-951.171875,-32.2265625,NaN
1731719408406.3125,-46.38671875,-745.1171875,-749.51171875,-11.23046875,NaN
1731719408410.2188,-70.3125,-216.30859375,-408.203125,-48.828125,NaN
1731719408414.125,-58.10546875,-487.3046875,-755.37109375,-84.9609375,NaN
1731719408418.0312,-17.08984375,-920.8984375,-1000,-49.8046875,NaN
1731719408421.9375,-16.11328125,-399.90234375,-499.0234375,-8.7890625,NaN
1731719408425.8438,-54.6875,-13.18359375,-229.98046875,-22.94921875,NaN
1731719408429.75,-46.875,-609.86328125,-764.16015625,-48.828125,NaN
1731719408433.6562,-7.32421875,-829.1015625,-918.9453125,-34.66796875,NaN
1731719408437.5625,-3.90625,-41.015625,-204.58984375,-0.9765625,NaN
1731719408441.4688,-50.78125,218.75,0.9765625,-24.4140625,NaN
1731719408445.375,-55.17578125,-355.95703125,-547.36328125,-56.640625,NaN
1731719408449.2812,-14.6484375,-888.18359375,-993.65234375,-33.203125,NaN
1731719408453.1875,-12.20703125,-550.78125,-665.0390625,-8.30078125,NaN
1731719408457.0938,-50.29296875,-127.9296875,-318.359375,-26.3671875,NaN
1731719408461,-76.171875,-623.046875,-757.32421875,-56.15234375,NaN
1731719408464.9062,-38.0859375,-967.7734375,-1000,-60.546875,NaN
1731719408468.8125,-12.20703125,-707.03125,-862.3046875,-39.55078125,NaN
1731719408472.7188,-57.12890625,-373.53515625,-555.6640625,-43.45703125,NaN
1731719408476.625,-88.37890625,-476.5625,-629.8828125,-65.91796875,NaN
1731719408480.5312,-49.8046875,-551.26953125,-767.08984375,-74.21875,NaN
1731719408484.4375,-5.37109375,-447.75390625,-655.76171875,-33.69140625,NaN
1731719408488.3438,-35.64453125,-254.39453125,-414.55078125,-13.18359375,NaN
1731719408492.25,-84.47265625,-590.8203125,-669.43359375,-49.31640625,NaN
1731719408496.1562,-72.265625,-1000,-1000,-68.84765625,NaN
1731719408500.0625,-29.78515625,-704.58984375,-868.65234375,-52.24609375,NaN
1731719408503.9688,-28.80859375,-270.5078125,-479.00390625,-30.76171875,NaN
1731719408507.875,-66.89453125,-621.09375,-650.390625,-34.1796875,NaN
1731719408511.7812,-59.5703125,-413.57421875,-536.1328125,-54.6875,NaN
1731719408515.6875,-1.46484375,255.37109375,-80.078125,-37.59765625,NaN
1731719408519.5938,30.76171875,94.23828125,-155.2734375,2.44140625,NaN
1731719408523.5,-13.18359375,-227.05078125,-338.37890625,-20.5078125,NaN
1731719408527.4062,-61.03515625,-132.32421875,-336.42578125,-56.640625,NaN
1731719408531.3125,-33.203125,-8.30078125,-332.51953125,-51.7578125,NaN
1731719408535.2188,-2.9296875,-43.9453125,-309.5703125,-24.4140625,NaN
1731719408539.125,-39.55078125,-116.69921875,-237.79296875,-12.6953125,NaN
1731719408543.0312,-85.9375,-349.12109375,-424.31640625,-31.25,NaN
1731719408546.9375,-62.01171875,-659.1796875,-795.8984375,-50.29296875,NaN
1731719408550.8438,-4.8828125,-681.640625,-827.1484375,-38.57421875,NaN
1731719408554.75,-10.7421875,-901.3671875,-922.8515625,4.8828125,NaN
1731719408558.6562,-65.4296875,-497.55859375,-597.65625,-32.71484375,NaN
1731719408562.5625,-71.77734375,-53.22265625,-327.63671875,-79.58984375,NaN
1731719408566.4688,-21.97265625,-354.98046875,-585.44921875,-72.265625,NaN
1731719408570.375,-6.8359375,-68.84765625,-234.86328125,-40.52734375,NaN
1731719408574.2812,-53.22265625,192.3828125,-6.34765625,-24.90234375,NaN
1731719408578.1875,-76.171875,-246.09375,-473.14453125,-66.89453125,NaN
1731719408582.0938,-24.4140625,-694.3359375,-877.9296875,-62.01171875,NaN
1731719408586,-5.37109375,-445.80078125,-638.671875,-35.64453125,NaN
1731719408589.9062,-46.875,-373.53515625,-500.48828125,-44.43359375,NaN
1731719408593.8125,-80.078125,-710.9375,-778.3203125,-53.7109375,NaN
1731719408597.7188,-46.875,-976.07421875,-1000,-49.31640625,NaN
1731719408601.625,3.90625,-864.74609375,-923.828125,-34.66796875,NaN
1731719408605.5312,-26.85546875,22.4609375,-192.3828125,-22.4609375,NaN
1731719408609.4375,-69.82421875,120.60546875,-111.81640625,-29.78515625,NaN
1731719408613.3438,-50.29296875,-520.99609375,-745.60546875,-40.0390625,NaN
1731719408617.25,-6.8359375,-395.01953125,-674.8046875,-20.01953125,NaN
1731719408621.1562,-19.04296875,156.25,-125.48828125,-8.7890625,NaN
1731719408625.0625,-68.359375,24.90234375,-175.29296875,-37.59765625,NaN
1731719408628.9688,-65.91796875,-543.9453125,-710.44921875,-66.89453125,NaN
1731719408632.875,-20.5078125,-460.9375,-709.9609375,-64.453125,NaN
1731719408636.7812,-9.765625,-337.40234375,-507.32421875,-17.578125,NaN
1731719408640.6875,-52.24609375,-550.78125,-572.265625,-5.37109375,NaN
1731719408644.5938,-69.3359375,-853.515625,-895.5078125,-59.08203125,NaN
1731719408648.5,-26.3671875,-519.04296875,-754.39453125,-58.59375,NaN
1731719408652.4062,-3.90625,-56.640625,-323.73046875,-13.18359375,NaN
1731719408656.3125,-41.015625,-349.12109375,-440.4296875,-10.25390625,NaN
1731719408660.2188,-73.73046875,-803.7109375,-856.93359375,-35.15625,NaN
1731719408664.125,-44.43359375,-393.06640625,-686.5234375,-48.828125,NaN
1731719408668.0312,-6.8359375,-166.50390625,-494.62890625,-33.203125,NaN
1731719408671.9375,-28.3203125,-291.015625,-414.0625,-11.71875,NaN
1731719408675.8438,-70.80078125,-257.8125,-413.57421875,-20.99609375,NaN
1731719408679.75,-51.26953125,-424.31640625,-666.9921875,-34.1796875,NaN
1731719408683.6562,3.41796875,-794.921875,-936.03515625,-14.6484375,NaN
1731719408687.5625,5.859375,-928.7109375,-956.54296875,16.6015625,NaN
1731719408691.4688,-51.7578125,-771.484375,-848.6328125,-13.18359375,NaN
1731719408695.375,-66.40625,-502.9296875,-750,-67.87109375,NaN
1731719408699.2812,-4.8828125,-519.53125,-788.0859375,-47.36328125,NaN
1731719408703.1875,16.6015625,-818.359375,-901.85546875,-5.859375,NaN
1731719408707.0938,-26.85546875,-684.08203125,-818.359375,-4.8828125,NaN
1731719408711,-44.921875,-625.9765625,-845.703125,-22.94921875,NaN
1731719408714.9062,-11.23046875,-980.95703125,-1000,-37.109375,NaN
1731719408718.8125,10.25390625,-953.125,-979.4921875,-26.85546875,NaN
1731719408722.7188,-24.90234375,-391.6015625,-593.75,-16.11328125,NaN
1731719408726.625,-61.03515625,-327.1484375,-565.4296875,-29.78515625,NaN
1731719408730.5312,-34.66796875,-913.0859375,-963.37890625,-41.015625,NaN
1731719408734.4375,13.18359375,-1000,-1000,-25.390625,NaN
1731719408738.3438,-4.39453125,-473.14453125,-689.453125,-25.87890625,NaN
1731719408742.25,-49.31640625,-219.23828125,-518.06640625,-33.69140625,NaN
1731719408746.1562,-43.9453125,-625,-834.9609375,-54.6875,NaN
1731719408750.0625,0.48828125,-833.984375,-992.67578125,-51.7578125,NaN
1731719408753.9688,3.90625,-401.85546875,-645.5078125,-18.06640625,NaN
1731719408757.875,-41.50390625,-254.39453125,-501.46484375,-26.85546875,NaN
1731719408761.7812,-68.359375,-788.0859375,-886.71875,-39.55078125,NaN
1731719408765.6875,-34.66796875,-802.734375,-984.86328125,-46.875,NaN
1731719408769.5938,-2.9296875,-528.80859375,-757.32421875,-33.69140625,NaN
1731719408773.5,-31.73828125,-466.796875,-609.375,-27.83203125,NaN
1731719408777.4062,-58.10546875,-777.34375,-829.58984375,-44.921875,NaN
1731719408781.3125,-27.83203125,-1000,-1000,-51.7578125,NaN
1731719408785.2188,5.859375,-497.55859375,-724.12109375,-23.92578125,NaN
1731719408789.125,-23.92578125,-277.34375,-479.98046875,-1.953125,NaN
1731719408793.0312,-65.4296875,-778.3203125,-840.33203125,-33.69140625,NaN
1731719408796.9375,-35.64453125,-333.0078125,-537.109375,-58.59375,NaN
1731719408800.8438,5.37109375,239.74609375,-78.61328125,-39.0625,NaN
1731719408804.75,-10.25390625,128.90625,-71.2890625,-11.23046875,NaN
1731719408808.6562,-65.4296875,-39.0625,-148.4375,-21.97265625,NaN
1731719408812.5625,-62.98828125,13.18359375,-208.0078125,-34.1796875,NaN
1731719408816.4688,-6.8359375,180.6640625,-139.6484375,-23.4375,NaN
1731719408820.375,-4.39453125,135.25390625,-65.91796875,-6.8359375,NaN
1731719408824.2812,-49.31640625,-209.47265625,-258.30078125,-2.44140625,NaN
1731719408828.1875,-59.08203125,-563.96484375,-641.11328125,-26.85546875,NaN
1731719408832.0938,-17.08984375,-586.9140625,-764.16015625,-42.48046875,NaN
1731719408836,-4.39453125,-284.1796875,-433.59375,-11.71875,NaN
1731719408839.9062,-44.921875,-791.9921875,-797.36328125,26.3671875,NaN
1731719408843.8125,-90.33203125,-523.92578125,-627.44140625,-14.16015625,NaN
1731719408847.7188,-71.2890625,-73.2421875,-353.02734375,-53.22265625,NaN
1731719408851.625,-23.4375,-194.3359375,-425.78125,-50.29296875,NaN
1731719408855.5312,-44.43359375,195.80078125,18.5546875,-27.83203125,NaN
1731719408859.4375,-76.171875,298.828125,71.77734375,-38.0859375,NaN
1731719408863.3438,-55.6640625,-227.05078125,-499.51171875,-76.171875,NaN
1731719408867.25,-10.7421875,-483.3984375,-684.5703125,-41.50390625,NaN
1731719408871.1562,-11.23046875,-536.1328125,-580.078125,-4.39453125,NaN
1731719408875.0625,-60.546875,-577.63671875,-644.53125,-48.828125,NaN
1731719408878.9688,-61.03515625,-444.3359375,-659.66796875,-51.26953125,NaN
1731719408882.875,-17.08984375,-861.328125,-939.94140625,-30.2734375,NaN
1731719408886.7812,-6.8359375,-731.4453125,-747.55859375,-36.1328125,NaN
1731719408890.6875,-42.96875,24.90234375,-111.328125,-29.296875,NaN
1731719408894.5938,-72.265625,-173.33984375,-334.47265625,-57.6171875,NaN
1731719408898.5,-34.1796875,-822.265625,-907.71484375,-71.77734375,NaN
1731719408902.4062,5.37109375,-439.453125,-598.14453125,-34.66796875,NaN
1731719408906.3125,-29.296875,25.390625,-187.01171875,2.44140625,NaN
1731719408910.2188,-62.98828125,-281.73828125,-462.890625,-23.4375,NaN
1731719408914.125,-33.69140625,-567.87109375,-786.1328125,-72.265625,NaN
1731719408918.0312,16.11328125,-676.7578125,-842.7734375,-47.36328125,NaN
1731719408921.9375,-10.7421875,-316.40625,-422.36328125,-14.16015625,NaN
1731719408925.8438,-83.49609375,-96.19140625,-205.078125,-46.875,NaN
1731719408929.75,-70.3125,-764.6484375,-821.2890625,-64.453125,NaN
1731719408933.6562,-15.625,-284.66796875,-516.6015625,-42.96875,NaN
1731719408937.5625,-8.7890625,256.34765625,-21.97265625,-19.53125,NaN
1731719408941.4688,-59.5703125,-246.09375,-358.3984375,-33.203125,NaN
1731719408945.375,-81.0546875,-518.5546875,-643.06640625,-66.40625,NaN
1731719408949.2812,-41.015625,-137.6953125,-430.17578125,-54.6875,NaN
1731719408953.1875,-20.5078125,76.171875,-182.12890625,-5.859375,NaN
1731719408957.0938,-53.7109375,-372.0703125,-474.609375,-22.94921875,NaN
1731719408961,-81.0546875,-554.19921875,-707.03125,-62.98828125,NaN
1731719408964.9062,-42.48046875,-705.56640625,-872.0703125,-65.4296875,NaN
1731719408968.8125,-4.39453125,-837.890625,-929.19921875,-48.828125,NaN
1731719408972.7188,-27.34375,-874.51171875,-904.296875,-24.90234375,NaN
1731719408976.625,-68.84765625,-702.1484375,-801.26953125,-39.0625,NaN
1731719408980.5312,-61.5234375,-297.36328125,-595.21484375,-56.15234375,NaN
1731719408984.4375,-27.83203125,-96.19140625,-417.96875,-46.38671875,NaN
1731719408988.3438,-36.1328125,-199.70703125,-373.53515625,-22.94921875,NaN
1731719408992.25,-75.1953125,-165.52734375,-362.3046875,-31.25,NaN
1731719408996.1562,-67.3828125,-198.2421875,-506.8359375,-76.171875,NaN
1731719409000.0625,-16.6015625,-626.953125,-851.5625,-58.10546875,NaN
1731719409003.9688,0.48828125,-736.328125,-815.91796875,0,NaN
1731719409007.875,-42.48046875,-305.6640625,-461.42578125,-19.04296875,NaN
1731719409011.7812,-72.265625,-535.64453125,-722.65625,-65.4296875,NaN
1731719409015.6875,-23.4375,-892.08984375,-1000,-63.96484375,NaN
1731719409019.5938,4.39453125,-824.21875,-876.46484375,-17.578125,NaN
1731719409023.5,-49.8046875,-162.109375,-315.91796875,-13.18359375,NaN
1731719409027.4062,-76.171875,-47.8515625,-323.73046875,-58.10546875,NaN
1731719409031.3125,-30.2734375,-538.57421875,-807.6171875,-56.15234375,NaN
1731719409035.2188,0.9765625,-545.8984375,-767.578125,-38.0859375,NaN
1731719409039.125,-35.15625,-102.05078125,-335.44921875,-48.33984375,NaN
1731719409043.0312,-73.2421875,-268.06640625,-520.99609375,-61.03515625,NaN
1731719409046.9375,-39.55078125,-810.546875,-969.7265625,-57.6171875,NaN
1731719409050.8438,1.953125,-503.90625,-724.609375,-42.96875,NaN
1731719409054.75,-25.87890625,-264.6484375,-529.78515625,-33.69140625,NaN
1731719409058.6562,-67.3828125,-837.40234375,-899.4140625,-45.41015625,NaN
1731719409062.5625,-62.98828125,-1000,-1000,-65.4296875,NaN
1731719409066.4688,-11.23046875,-753.90625,-932.12890625,-66.40625,NaN
1731719409070.375,8.30078125,-221.19140625,-524.90234375,-24.4140625,NaN
1731719409074.2812,-38.0859375,-143.5546875,-395.01953125,-14.6484375,NaN
1731719409078.1875,-66.40625,-822.265625,-894.04296875,-44.43359375,NaN
1731719409082.0938,-30.76171875,-854.98046875,-1000,-49.8046875,NaN
1731719409086,7.32421875,-367.1875,-740.234375,-20.99609375,NaN
1731719409089.9062,-25.87890625,-319.82421875,-559.5703125,-13.18359375,NaN
1731719409093.8125,-63.4765625,-668.45703125,-868.1640625,-43.45703125,NaN
1731719409097.7188,-40.52734375,-562.01171875,-932.12890625,-51.7578125,NaN
1731719409101.625,13.18359375,-645.5078125,-930.6640625,-10.7421875,NaN
1731719409105.5312,-8.7890625,-875.9765625,-962.40234375,2.44140625,NaN
1731719409109.4375,-60.546875,-905.76171875,-964.84375,-27.83203125,NaN
1731719409113.3438,-40.52734375,-939.453125,-1000,-48.828125,NaN
1731719409117.25,12.6953125,-842.7734375,-958.984375,-27.34375,NaN
1731719409121.1562,1.953125,-759.765625,-908.203125,15.625,NaN
1731719409125.0625,-55.6640625,-866.2109375,-974.12109375,-21.97265625,NaN
1731719409128.9688,-63.96484375,-552.734375,-846.6796875,-74.70703125,NaN
1731719409132.875,-24.4140625,-386.71875,-759.765625,-62.01171875,NaN
1731719409136.7812,-11.23046875,-646.484375,-852.5390625,-23.92578125,NaN
1731719409140.6875,-51.26953125,-566.89453125,-726.07421875,-11.23046875,NaN
1731719409144.5938,-79.1015625,-361.328125,-685.05859375,-36.1328125,NaN
1731719409148.5,-38.57421875,-551.7578125,-905.76171875,-45.8984375,NaN
1731719409152.4062,-8.7890625,-932.6171875,-1000,-19.53125,NaN
1731719409156.3125,-46.38671875,-950.1953125,-964.35546875,-17.08984375,NaN
1731719409160.2188,-88.8671875,-632.32421875,-856.4453125,-54.6875,NaN
1731719409164.125,-67.87109375,-756.34765625,-941.40625,-79.1015625,NaN
1731719409168.0312,-19.53125,-1000,-1000,-59.08203125,NaN
1731719409171.9375,-43.45703125,-832.51953125,-865.72265625,-29.78515625,NaN
1731719409175.8438,-111.328125,-333.0078125,-529.296875,-50.29296875,NaN
1731719409179.75,-86.9140625,-462.40234375,-726.07421875,-76.66015625,NaN
1731719409183.6562,-16.11328125,-891.6015625,-1000,-33.203125,NaN
1731719409187.5625,-9.27734375,-551.7578125,-702.1484375,-3.41796875,NaN
1731719409191.4688,-74.70703125,-267.578125,-513.671875,-45.41015625,NaN
1731719409195.375,-99.609375,-555.6640625,-778.80859375,-82.03125,NaN
1731719409199.2812,-46.38671875,-943.84765625,-1000,-57.12890625,NaN
1731719409203.1875,-17.578125,-613.76953125,-710.9375,-14.16015625,NaN
1731719409207.0938,-55.6640625,54.6875,-150.390625,-18.06640625,NaN
1731719409211,-93.75,-289.0625,-461.42578125,-69.3359375,NaN
1731719409214.9062,-65.91796875,-869.62890625,-951.171875,-70.80078125,NaN
1731719409218.8125,-27.34375,-371.09375,-591.30859375,-37.109375,NaN
1731719409222.7188,-63.96484375,8.30078125,-268.5546875,-42.48046875,NaN
1731719409226.625,-111.81640625,-508.7890625,-624.51171875,-67.87109375,NaN
1731719409230.5312,-91.30859375,-934.5703125,-1000,-91.796875,NaN
1731719409234.4375,-38.0859375,-438.96484375,-712.890625,-69.3359375,NaN
1731719409238.3438,-34.1796875,-79.1015625,-322.75390625,-16.11328125,NaN
1731719409242.25,-80.56640625,-576.171875,-666.50390625,-50.78125,NaN
1731719409246.1562,-92.28515625,-940.91796875,-1000,-106.93359375,NaN
1731719409250.0625,-53.22265625,-748.046875,-908.203125,-84.47265625,NaN
1731719409253.9688,-47.36328125,-309.5703125,-482.421875,-48.828125,NaN
1731719409257.875,-85.44921875,-669.43359375,-722.16796875,-44.43359375,NaN
1731719409261.7812,-99.12109375,-861.81640625,-975.5859375,-73.73046875,NaN
1731719409265.6875,-38.57421875,-303.7109375,-602.5390625,-71.77734375,NaN
1731719409269.5938,6.34765625,-104.00390625,-339.35546875,-19.04296875,NaN
1731719409273.5,-50.78125,-301.26953125,-392.578125,-2.44140625,NaN
1731719409277.4062,-93.75,-250,-438.96484375,-46.875,NaN
1731719409281.3125,-48.828125,-233.3984375,-543.45703125,-84.47265625,NaN
1731719409285.2188,-9.765625,-353.02734375,-553.7109375,-43.45703125,NaN
1731719409289.125,-44.43359375,-408.203125,-478.515625,-15.625,NaN
1731719409293.0312,-87.40234375,-479.4921875,-552.734375,-56.15234375,NaN
1731719409296.9375,-56.15234375,-432.12890625,-614.2578125,-72.265625,NaN
1731719409300.8438,-9.765625,-455.078125,-682.6171875,-58.59375,NaN
1731719409304.75,-30.76171875,-877.9296875,-920.41015625,-36.62109375,NaN
1731719409308.6562,-86.42578125,-399.4140625,-503.41796875,-42.96875,NaN
1731719409312.5625,-90.33203125,-349.12109375,-560.546875,-69.3359375,NaN
1731719409316.4688,-49.8046875,-756.8359375,-927.734375,-59.5703125,NaN
1731719409320.375,-37.59765625,-418.9453125,-568.84765625,-46.875,NaN
1731719409324.2812,-71.2890625,-104.4921875,-289.55078125,-59.5703125,NaN
1731719409328.1875,-75.1953125,-158.69140625,-395.99609375,-69.82421875,NaN
1731719409332.0938,-30.2734375,-597.65625,-796.875,-71.77734375,NaN
1731719409336,-12.6953125,-450.68359375,-645.5078125,-62.5,NaN
1731719409339.9062,-56.15234375,-439.453125,-530.2734375,-53.7109375,NaN
1731719409343.8125,-93.75,-730.46875,-773.4375,-66.89453125,NaN
1731719409347.7188,-61.03515625,-935.546875,-966.796875,-75.68359375,NaN
1731719409351.625,-17.578125,-870.1171875,-913.57421875,-52.734375,NaN
1731719409355.5312,-40.52734375,-84.9609375,-270.99609375,-38.57421875,NaN
1731719409359.4375,-95.703125,-37.109375,-223.6328125,-70.3125,NaN
1731719409363.3438,-90.33203125,-618.65234375,-811.03515625,-90.33203125,NaN
1731719409367.25,-32.71484375,-329.1015625,-603.515625,-65.4296875,NaN
1731719409371.1562,-18.06640625,166.015625,-88.8671875,-33.69140625,NaN
1731719409375.0625,-51.26953125,-144.04296875,-284.66796875,-36.1328125,NaN
1731719409378.9688,-63.4765625,-792.48046875,-905.76171875,-82.51953125,NaN
1731719409382.875,-21.97265625,-535.15625,-795.41015625,-79.58984375,NaN
1731719409386.7812,-1.46484375,-401.3671875,-556.15234375,-14.6484375,NaN
1731719409390.6875,-50.29296875,-672.36328125,-684.08203125,-10.25390625,NaN
1731719409394.5938,-69.3359375,-825.1953125,-870.60546875,-51.7578125,NaN
1731719409398.5,-20.99609375,-551.7578125,-756.34765625,-52.734375,NaN
1731719409402.4062,10.25390625,-241.2109375,-455.56640625,-26.85546875,NaN
1731719409406.3125,-25.87890625,-255.37109375,-357.421875,-29.78515625,NaN
1731719409410.2188,-74.70703125,-700.68359375,-797.36328125,-64.453125,NaN
1731719409414.125,-58.10546875,-444.3359375,-702.63671875,-87.890625,NaN
1731719409418.0312,-12.20703125,-170.41015625,-458.984375,-58.10546875,NaN
1731719409421.9375,-24.90234375,-429.6875,-549.8046875,-22.4609375,NaN
1731719409425.8438,-66.89453125,-378.90625,-509.765625,-43.45703125,NaN
1731719409429.75,-71.77734375,-323.2421875,-580.078125,-70.80078125,NaN
1731719409433.6562,-27.34375,-791.50390625,-935.05859375,-62.5,NaN
1731719409437.5625,-22.94921875,-971.6796875,-987.79296875,-19.53125,NaN
1731719409441.4688,-76.66015625,-480.46875,-561.03515625,-36.62109375,NaN
1731719409445.375,-102.05078125,-148.4375,-403.3203125,-80.078125,NaN
1731719409449.2812,-51.7578125,-219.7265625,-507.32421875,-75.68359375,NaN
1731719409453.1875,-28.3203125,-443.359375,-574.70703125,-45.8984375,NaN
1731719409457.0938,-62.98828125,-502.9296875,-564.94140625,-42.96875,NaN
1731719409461,-78.125,-384.765625,-576.171875,-71.2890625,NaN
1731719409464.9062,-42.96875,-293.9453125,-577.1484375,-91.796875,NaN
1731719409468.8125,-9.765625,-710.9375,-818.84765625,-46.38671875,NaN
1731719409472.7188,-46.38671875,-246.09375,-376.46484375,-11.23046875,NaN
1731719409476.625,-96.6796875,-20.5078125,-256.34765625,-44.43359375,NaN
1731719409480.5312,-71.2890625,-792.96875,-935.546875,-64.94140625,NaN
1731719409484.4375,-19.53125,-829.1015625,-902.34375,-50.29296875,NaN
1731719409488.3438,-22.4609375,-109.375,-272.4609375,-21.484375,NaN
1731719409492.25,-68.359375,37.59765625,-182.6171875,-35.15625,NaN
1731719409496.1562,-69.82421875,-531.73828125,-692.87109375,-62.5,NaN
1731719409500.0625,-15.625,-911.62109375,-982.421875,-29.78515625,NaN
1731719409503.9688,-12.20703125,-142.578125,-340.8203125,-9.765625,NaN
1731719409507.875,-55.6640625,223.6328125,-15.13671875,-36.1328125,NaN
1731719409511.7812,-61.03515625,-552.734375,-693.359375,-56.15234375,NaN
1731719409515.6875,-24.4140625,-876.46484375,-1000,-36.1328125,NaN
1731719409519.5938,-7.8125,-277.83203125,-501.46484375,-21.484375,NaN
1731719409523.5,-48.33984375,-337.890625,-486.81640625,-42.96875,NaN
1731719409527.4062,-76.171875,-960.9375,-966.30859375,-76.171875,NaN
1731719409531.3125,-43.45703125,-1000,-1000,-64.94140625,NaN
1731719409535.2188,-11.23046875,-581.54296875,-809.08203125,-25.390625,NaN
1731719409539.125,-36.62109375,-335.9375,-560.05859375,-15.13671875,NaN
1731719409543.0312,-72.265625,-787.59765625,-874.0234375,-39.55078125,NaN
1731719409546.9375,-46.875,-750,-1000,-66.40625,NaN
1731719409550.8438,7.32421875,-326.171875,-660.64453125,-48.828125,NaN
1731719409554.75,-3.90625,-292.96875,-522.4609375,-10.25390625,NaN
1731719409558.6562,-66.40625,-498.53515625,-665.0390625,-42.48046875,NaN
1731719409562.5625,-63.96484375,-517.08984375,-779.78515625,-73.73046875,NaN
1731719409566.4688,-8.30078125,-372.55859375,-700.68359375,-39.0625,NaN
1731719409570.375,7.32421875,-355.46875,-562.5,-4.8828125,NaN
1731719409574.2812,-41.015625,-751.46484375,-774.90234375,-23.92578125,NaN
1731719409578.1875,-44.921875,-1000,-1000,-57.12890625,NaN
1731719409582.0938,10.7421875,-611.328125,-865.234375,-54.6875,NaN
1731719409586,17.578125,-442.87109375,-669.921875,-12.6953125,NaN
1731719409589.9062,-29.296875,-900.390625,-918.45703125,12.6953125,NaN
1731719409593.8125,-73.2421875,-530.2734375,-695.80078125,-41.9921875,NaN
1731719409597.7188,-55.6640625,-197.265625,-512.6953125,-63.96484375,NaN
1731719409601.625,-3.90625,-375.48828125,-611.328125,-20.01953125,NaN
1731719409605.5312,-23.92578125,-207.51953125,-361.81640625,2.44140625,NaN
1731719409609.4375,-81.0546875,-3.90625,-208.0078125,-22.94921875,NaN
1731719409613.3438,-64.453125,-351.5625,-642.08984375,-62.01171875,NaN
1731719409617.25,-22.4609375,-776.85546875,-935.546875,-54.19921875,NaN
1731719409621.1562,-25.390625,-742.1875,-753.41796875,-17.08984375,NaN
1731719409625.0625,-71.2890625,-565.91796875,-641.6015625,-34.66796875,NaN
1731719409628.9688,-77.63671875,-672.36328125,-798.33984375,-66.89453125,NaN
1731719409632.875,-9.765625,-956.54296875,-999.0234375,-48.828125,NaN
1731719409636.7812,4.39453125,-545.41015625,-652.34375,-15.625,NaN
1731719409640.6875,-57.12890625,-81.54296875,-298.828125,-27.34375,NaN
1731719409644.5938,-82.51953125,-390.13671875,-580.078125,-64.453125,NaN
1731719409648.5,-36.1328125,-864.74609375,-940.91796875,-51.26953125,NaN
1731719409652.4062,-2.44140625,-542.48046875,-718.26171875,-20.99609375,NaN
1731719409656.3125,-40.0390625,-110.3515625,-344.7265625,-34.66796875,NaN
1731719409660.2188,-80.078125,-298.33984375,-458.984375,-53.7109375,NaN
1731719409664.125,-43.45703125,-819.82421875,-906.73828125,-48.828125,NaN
1731719409668.0312,1.46484375,-844.23828125,-929.6875,-37.109375,NaN
1731719409671.9375,-22.4609375,-453.61328125,-551.26953125,-20.5078125,NaN
1731719409675.8438,-66.89453125,-447.75390625,-542.96875,-46.38671875,NaN
1731719409679.75,-52.734375,-925.29296875,-979.00390625,-51.7578125,NaN
1731719409683.6562,-6.8359375,-551.7578125,-753.41796875,-25.390625,NaN
1731719409687.5625,-3.90625,-240.234375,-414.55078125,-22.94921875,NaN
1731719409691.4688,-59.5703125,-555.17578125,-618.65234375,-30.76171875,NaN
1731719409695.375,-87.40234375,-710.9375,-888.18359375,-54.6875,NaN
1731719409699.2812,-36.62109375,-288.57421875,-627.44140625,-66.89453125,NaN
1731719409703.1875,-5.859375,-85.44921875,-356.4453125,-36.62109375,NaN
1731719409707.0938,-39.55078125,-395.99609375,-532.71484375,-26.3671875,NaN
1731719409711,-73.2421875,-416.50390625,-614.74609375,-60.05859375,NaN
1731719409714.9062,-38.0859375,-526.85546875,-760.25390625,-62.01171875,NaN
1731719409718.8125,1.46484375,-670.41015625,-809.08203125,-28.80859375,NaN
1731719409722.7188,-36.1328125,-794.921875,-814.94140625,-15.625,NaN
1731719409726.625,-85.44921875,-796.38671875,-911.1328125,-54.6875,NaN
1731719409730.5312,-67.87109375,-483.3984375,-792.96875,-78.125,NaN
1731719409734.4375,-3.90625,-562.01171875,-810.546875,-42.96875,NaN
1731719409738.3438,-18.06640625,-563.4765625,-706.54296875,-4.39453125,NaN
1731719409742.25,-86.42578125,-456.54296875,-604.4921875,-23.4375,NaN
1731719409746.1562,-83.49609375,-585.9375,-774.4140625,-77.63671875,NaN
1731719409750.0625,-26.3671875,-472.16796875,-707.03125,-61.03515625,NaN
1731719409753.9688,-4.8828125,-541.50390625,-667.48046875,-19.53125,NaN
1731719409757.875,-44.921875,-281.25,-425.29296875,-34.1796875,NaN
1731719409761.7812,-63.4765625,-522.4609375,-704.58984375,-51.7578125,NaN
1731719409765.6875,-15.625,-821.77734375,-971.6796875,-55.17578125,NaN
1731719409769.5938,6.8359375,-929.6875,-965.33203125,-21.97265625,NaN
1731719409773.5,-42.96875,-505.37109375,-614.74609375,-7.32421875,NaN
1731719409777.4062,-79.1015625,-149.4140625,-415.52734375,-53.22265625,NaN
1731719409781.3125,-35.15625,-534.1796875,-788.57421875,-69.3359375,NaN
1731719409785.2188,-12.6953125,-427.734375,-664.55078125,-35.64453125,NaN
1731719409789.125,-49.8046875,-70.80078125,-304.6875,-27.34375,NaN
1731719409793.0312,-88.37890625,-148.92578125,-399.90234375,-47.8515625,NaN
1731719409796.9375,-74.70703125,-664.55078125,-839.35546875,-42.48046875,NaN
1731719409800.8438,-22.94921875,-916.50390625,-1000,-31.73828125,NaN
1731719409804.75,-22.94921875,-519.53125,-700.1953125,-23.4375,NaN
1731719409808.6562,-76.66015625,-628.90625,-759.765625,-37.109375,NaN
1731719409812.5625,-86.9140625,-997.0703125,-1000,-44.43359375,NaN
1731719409816.4688,-36.1328125,-979.98046875,-1000,-36.1328125,NaN
1731719409820.375,-33.69140625,-274.90234375,-491.69921875,-35.15625,NaN
1731719409824.2812,-74.70703125,-2.44140625,-221.19140625,-47.8515625,NaN
1731719409828.1875,-79.58984375,-680.6640625,-840.33203125,-59.5703125,NaN
1731719409832.0938,-51.26953125,-570.3125,-870.60546875,-55.6640625,NaN
1731719409836,-24.90234375,-37.59765625,-353.02734375,-32.2265625,NaN
1731719409839.9062,-50.29296875,-98.14453125,-295.8984375,-20.5078125,NaN
1731719409843.8125,-95.21484375,-476.07421875,-638.18359375,-27.34375,NaN
1731719409847.7188,-77.63671875,-333.984375,-629.39453125,-44.921875,NaN
1731719409851.625,-19.04296875,-159.66796875,-482.421875,-25.390625,NaN
1731719409855.5312,-21.484375,-451.171875,-574.70703125,-2.9296875,NaN
1731719409859.4375,-62.01171875,-947.265625,-928.7109375,-27.34375,NaN
1731719409863.3438,-52.24609375,-921.38671875,-1000,-55.17578125,NaN
1731719409867.25,5.859375,-366.69921875,-645.01953125,-44.43359375,NaN
1731719409871.1562,-1.953125,-280.2734375,-450.68359375,-11.23046875,NaN
1731719409875.0625,-61.03515625,-549.8046875,-585.44921875,-14.6484375,NaN
1731719409878.9688,-70.80078125,-339.35546875,-573.73046875,-43.45703125,NaN
1731719409882.875,-15.625,-203.61328125,-554.6875,-47.36328125,NaN
1731719409886.7812,7.32421875,-375,-575.68359375,-22.94921875,NaN
1731719409890.6875,-40.0390625,-321.77734375,-435.546875,-27.34375,NaN
1731719409894.5938,-72.75390625,-299.31640625,-518.06640625,-51.7578125,NaN
1731719409898.5,-46.875,-384.765625,-693.359375,-38.57421875,NaN
1731719409902.4062,-13.18359375,-770.01953125,-882.32421875,-0.9765625,NaN
1731719409906.3125,-33.69140625,-653.3203125,-672.8515625,2.9296875,NaN
1731719409910.2188,-65.91796875,-417.96875,-606.93359375,-35.15625,NaN
1731719409914.125,-33.203125,-687.98828125,-911.62109375,-49.8046875,NaN
1731719409918.0312,11.23046875,-977.05078125,-1000,-0.48828125,NaN
1731719409921.9375,-22.4609375,-681.640625,-719.23828125,-14.16015625,NaN
1731719409925.8438,-77.63671875,-164.0625,-331.54296875,-54.19921875,NaN
1731719409929.75,-67.87109375,-342.28515625,-550.78125,-59.5703125,NaN
1731719409933.6562,-16.11328125,-375,-568.84765625,-42.96875,NaN
1731719409937.5625,-10.7421875,186.03515625,-9.27734375,-30.2734375,NaN
1731719409941.4688,-60.546875,336.9140625,133.30078125,-32.2265625,NaN
1731719409945.375,-67.3828125,-127.9296875,-328.61328125,-58.10546875,NaN
1731719409949.2812,-32.2265625,-557.6171875,-680.6640625,-68.359375,NaN
1731719409953.1875,1.46484375,-266.6015625,-376.953125,-23.4375,NaN
1731719409957.0938,-36.62109375,402.83203125,201.171875,-19.04296875,NaN
1731719409961,-71.77734375,-48.33984375,-217.7734375,-49.31640625,NaN
1731719409964.9062,-30.76171875,-821.2890625,-886.23046875,-47.8515625,NaN
1731719409968.8125,-5.859375,-121.09375,-283.69140625,-24.90234375,NaN
1731719409972.7188,-38.0859375,176.26953125,48.828125,-29.296875,NaN
1731719409976.625,-69.3359375,-384.765625,-415.52734375,-56.15234375,NaN
1731719409980.5312,-29.78515625,-537.109375,-689.453125,-46.38671875,NaN
1731719409984.4375,17.578125,-1.46484375,-280.76171875,-25.390625,NaN
1731719409988.3438,-18.06640625,279.78515625,73.2421875,-29.78515625,NaN
1731719409992.25,-64.453125,-267.08984375,-354.98046875,-59.5703125,NaN
1731719409996.1562,-58.59375,-853.02734375,-939.94140625,-79.1015625,NaN
1731719410000.0625,-22.4609375,-657.2265625,-814.453125,-62.01171875,NaN
1731719410003.9688,-12.20703125,107.421875,-78.61328125,-18.06640625,NaN
1731719410007.875,-62.01171875,-388.671875,-403.80859375,-6.34765625,NaN
1731719410011.7812,-86.42578125,-610.83984375,-684.5703125,-46.38671875,NaN
1731719410015.6875,-49.8046875,8.30078125,-278.3203125,-75.1953125,NaN
1731719410019.5938,-21.484375,37.109375,-189.94140625,-59.5703125,NaN
1731719410023.5,-58.59375,-81.0546875,-183.10546875,-53.7109375,NaN
1731719410027.4062,-80.078125,-57.12890625,-202.1484375,-71.2890625,NaN
1731719410031.3125,-48.828125,-291.015625,-494.62890625,-77.63671875,NaN
1731719410035.2188,-21.484375,-372.55859375,-573.2421875,-52.24609375,NaN
1731719410039.125,-39.55078125,-381.8359375,-447.265625,-37.59765625,NaN
1731719410043.0312,-73.73046875,-366.2109375,-394.53125,-51.7578125,NaN
1731719410046.9375,-50.78125,-476.5625,-644.53125,-70.80078125,NaN
1731719410050.8438,-8.7890625,-504.8828125,-720.21484375,-58.59375,NaN
1731719410054.75,-14.6484375,-751.953125,-799.8046875,-30.2734375,NaN
1731719410058.6562,-64.94140625,-200.1953125,-313.96484375,-57.6171875,NaN
1731719410062.5625,-62.01171875,-3.41796875,-271.484375,-83.984375,NaN
1731719410066.4688,5.859375,-454.1015625,-699.70703125,-60.546875,NaN
1731719410070.375,-0.48828125,-413.0859375,-608.88671875,-24.4140625,NaN
1731719410074.2812,-62.5,-18.5546875,-216.796875,-33.203125,NaN
1731719410078.1875,-67.3828125,-162.109375,-397.94921875,-68.359375,NaN
1731719410082.0938,-14.16015625,-678.7109375,-856.4453125,-68.359375,NaN
1731719410086,0.48828125,-491.69921875,-615.72265625,-41.9921875,NaN
1731719410089.9062,-48.33984375,-435.546875,-517.578125,-38.57421875,NaN
1731719410093.8125,-84.9609375,-749.51171875,-844.7265625,-63.96484375,NaN
1731719410097.7188,-55.6640625,-983.88671875,-1000,-54.19921875,NaN
1731719410101.625,-8.7890625,-904.296875,-930.6640625,-16.6015625,NaN
1731719410105.5312,-24.90234375,-134.27734375,-341.796875,-20.99609375,NaN
1731719410109.4375,-61.03515625,-119.140625,-325.68359375,-39.0625,NaN
1731719410113.3438,-51.7578125,-790.0390625,-916.015625,-50.29296875,NaN
1731719410117.25,-17.08984375,-459.9609375,-753.41796875,-52.24609375,NaN
1731719410121.1562,-22.4609375,132.32421875,-206.54296875,-49.8046875,NaN
1731719410125.0625,-72.75390625,-117.67578125,-338.37890625,-67.87109375,NaN
1731719410128.9688,-82.51953125,-655.76171875,-894.04296875,-88.37890625,NaN
1731719410132.875,-42.96875,-504.39453125,-853.515625,-83.984375,NaN
1731719410136.7812,-29.296875,-461.42578125,-700.68359375,-48.828125,NaN
1731719410140.6875,-58.10546875,-695.80078125,-755.859375,-31.73828125,NaN
1731719410144.5938,-86.9140625,-937.01171875,-952.63671875,-62.01171875,NaN
1731719410148.5,-46.38671875,-737.79296875,-974.12109375,-87.890625,NaN
1731719410152.4062,-9.27734375,-261.23046875,-609.86328125,-57.12890625,NaN
1731719410156.3125,-42.96875,-333.49609375,-510.25390625,-35.64453125,NaN
1731719410160.2188,-68.359375,-654.78515625,-804.19921875,-60.05859375,NaN
1731719410164.125,-42.96875,-438.96484375,-754.8828125,-70.80078125,NaN
1731719410168.0312,-4.39453125,-168.45703125,-499.51171875,-50.78125,NaN
1731719410171.9375,-20.01953125,-319.3359375,-474.12109375,-14.6484375,NaN
1731719410175.8438,-66.40625,-356.93359375,-514.16015625,-31.73828125,NaN
1731719410179.75,-64.453125,-352.5390625,-647.4609375,-47.36328125,NaN
1731719410183.6562,-18.5546875,-728.02734375,-954.1015625,-38.57421875,NaN
1731719410187.5625,-27.34375,-979.4921875,-1000,-21.97265625,NaN
1731719410191.4688,-71.2890625,-780.76171875,-852.05078125,-36.62109375,NaN
1731719410195.375,-75.1953125,-434.08203125,-693.84765625,-77.1484375,NaN
1731719410199.2812,-32.71484375,-671.875,-940.4296875,-63.4765625,NaN
1731719410203.1875,-17.578125,-861.81640625,-949.70703125,-36.1328125,NaN
1731719410207.0938,-58.10546875,-287.109375,-417.48046875,-30.2734375,NaN
1731719410211,-87.40234375,-49.31640625,-340.8203125,-55.6640625,NaN
1731719410214.9062,-51.7578125,-478.515625,-771.97265625,-61.03515625,NaN
1731719410218.8125,-13.18359375,-761.71875,-892.08984375,-39.0625,NaN
1731719410222.7188,-47.8515625,-258.30078125,-440.4296875,-32.2265625,NaN
1731719410226.625,-93.26171875,-149.90234375,-415.0390625,-58.59375,NaN
1731719410230.5312,-73.73046875,-710.44921875,-868.65234375,-87.40234375,NaN
1731719410234.4375,-24.4140625,-1000,-1000,-61.5234375,NaN
1731719410238.3438,-40.0390625,-385.25390625,-539.0625,-33.203125,NaN
1731719410242.25,-104.00390625,44.921875,-192.3828125,-58.10546875,NaN
1731719410246.1562,-92.7734375,-441.40625,-664.55078125,-81.54296875,NaN
1731719410250.0625,-33.203125,-652.83203125,-926.26953125,-78.61328125,NaN
1731719410253.9688,-41.9921875,-263.671875,-536.62109375,-41.9921875,NaN
1731719410257.875,-88.37890625,-325.68359375,-486.328125,-44.921875,NaN
1731719410261.7812,-91.796875,-829.1015625,-898.92578125,-96.19140625,NaN
1731719410265.6875,-30.2734375,-745.1171875,-945.3125,-87.890625,NaN
1731719410269.5938,1.953125,-188.96484375,-483.88671875,-51.26953125,NaN
1731719410273.5,-43.9453125,-73.2421875,-288.57421875,-50.78125,NaN
1731719410277.4062,-69.82421875,-769.04296875,-818.84765625,-35.64453125,NaN
1731719410281.3125,-25.87890625,-1000,-1000,-36.62109375,NaN
1731719410285.2188,4.8828125,-417.96875,-675.78125,-47.36328125,NaN
1731719410289.125,-36.62109375,-208.49609375,-447.265625,-32.71484375,NaN
1731719410293.0312,-84.9609375,-801.26953125,-849.609375,-43.45703125,NaN
1731719410296.9375,-67.87109375,-816.40625,-974.609375,-58.10546875,NaN
1731719410300.8438,-10.7421875,-259.27734375,-593.26171875,-45.8984375,NaN
1731719410304.75,-18.5546875,-242.67578125,-459.9609375,-28.3203125,NaN
1731719410308.6562,-55.6640625,-541.50390625,-656.73828125,-32.71484375,NaN
1731719410312.5625,-49.8046875,-571.2890625,-760.7421875,-62.98828125,NaN
1731719410316.4688,-27.34375,-899.4140625,-971.19140625,-58.10546875,NaN
1731719410320.375,-19.04296875,-1000,-1000,-27.34375,NaN
1731719410324.2812,-48.828125,-1000,-1000,-26.85546875,NaN
1731719410328.1875,-68.359375,-853.02734375,-927.734375,-55.6640625,NaN
1731719410332.0938,-46.38671875,-531.73828125,-814.453125,-76.66015625,NaN
1731719410336,-23.4375,-684.08203125,-910.15625,-57.6171875,NaN
1731719410339.9062,-46.875,-752.44140625,-826.66015625,-9.27734375,NaN
1731719410343.8125,-80.078125,-514.6484375,-688.4765625,-28.80859375,NaN
1731719410347.7188,-55.17578125,-326.66015625,-624.51171875,-77.1484375,NaN
1731719410351.625,-17.08984375,-514.16015625,-723.6328125,-56.640625,NaN
1731719410355.5312,-30.76171875,-357.421875,-480.95703125,-4.39453125,NaN
1731719410359.4375,-66.40625,-117.67578125,-342.7734375,-18.06640625,NaN
1731719410363.3438,-47.8515625,-476.5625,-768.5546875,-56.15234375,NaN
1731719410367.25,8.7890625,-900.390625,-1000,-42.96875,NaN
1731719410371.1562,11.71875,-809.5703125,-818.84765625,-6.8359375,NaN
1731719410375.0625,-35.15625,-642.578125,-675.29296875,-5.37109375,NaN
1731719410378.9688,-43.45703125,-921.38671875,-928.22265625,-41.015625,NaN
1731719410382.875,-6.34765625,-1000,-1000,-40.52734375,NaN
1731719410386.7812,13.671875,-889.16015625,-918.45703125,-13.18359375,NaN
1731719410390.6875,-28.80859375,-327.1484375,-452.1484375,-5.37109375,NaN
1731719410394.5938,-67.3828125,-295.8984375,-442.87109375,-31.73828125,NaN
1731719410398.5,-29.296875,-855.46875,-933.10546875,-74.21875,NaN
1731719410402.4062,-0.48828125,-509.27734375,-709.47265625,-42.96875,NaN
1731719410406.3125,-33.203125,70.80078125,-157.71484375,-20.01953125,NaN
1731719410410.2188,-62.5,-106.4453125,-261.23046875,-49.31640625,NaN
1731719410414.125,-34.1796875,-551.26953125,-750.9765625,-57.12890625,NaN
1731719410418.0312,2.9296875,-790.52734375,-955.56640625,-38.57421875,NaN
1731719410421.9375,-15.13671875,-658.203125,-742.1875,-25.390625,NaN
1731719410425.8438,-70.80078125,-519.53125,-621.09375,-47.8515625,NaN
1731719410429.75,-78.125,-958.984375,-983.88671875,-65.91796875,NaN
1731719410433.6562,-29.296875,-732.421875,-870.60546875,-58.59375,NaN
1731719410437.5625,-23.4375,-64.94140625,-305.6640625,-31.73828125,NaN
1731719410441.4688,-75.68359375,-307.12890625,-408.203125,-27.34375,NaN
1731719410445.375,-90.33203125,-781.25,-902.83203125,-63.96484375,NaN
1731719410449.2812,-43.9453125,-444.82421875,-737.79296875,-77.1484375,NaN
1731719410453.1875,-10.25390625,-10.25390625,-269.04296875,-31.73828125,NaN
1731719410457.0938,-49.31640625,-290.0390625,-390.13671875,-4.8828125,NaN
1731719410461,-79.58984375,-445.3125,-575.68359375,-18.06640625,NaN
1731719410464.9062,-32.2265625,-532.71484375,-711.9140625,-30.76171875,NaN
1731719410468.8125,19.53125,-592.7734375,-715.8203125,-13.671875,NaN
1731719410472.7188,-14.16015625,-744.140625,-773.4375,3.41796875,NaN
1731719410476.625,-74.21875,-694.3359375,-765.13671875,-37.59765625,NaN
1731719410480.5312,-57.6171875,-288.57421875,-565.91796875,-63.4765625,NaN
1731719410484.4375,-4.8828125,-215.8203125,-505.859375,-29.296875,NaN
1731719410488.3438,-6.8359375,-489.74609375,-570.3125,1.46484375,NaN
1731719410492.25,-52.734375,-418.9453125,-520.01953125,-10.7421875,NaN
1731719410496.1562,-55.17578125,-260.7421875,-527.34375,-42.48046875,NaN
1731719410500.0625,-10.7421875,-550.78125,-813.4765625,-38.0859375,NaN
1731719410503.9688,8.30078125,-697.75390625,-800.78125,3.90625,NaN
1731719410507.875,-43.9453125,-388.18359375,-512.20703125,-1.953125,NaN
1731719410511.7812,-71.77734375,-651.3671875,-753.90625,-40.52734375,NaN
1731719410515.6875,-27.83203125,-1000,-1000,-42.96875,NaN
1731719410519.5938,-4.8828125,-923.828125,-935.05859375,-18.5546875,NaN
1731719410523.5,-46.875,-94.7265625,-213.8671875,-33.203125,NaN
1731719410527.4062,-81.0546875,43.9453125,-177.24609375,-69.3359375,NaN
1731719410531.3125,-45.41015625,-317.3828125,-545.41015625,-67.87109375,NaN
1731719410535.2188,0,-72.265625,-282.71484375,-28.3203125,NaN
1731719410539.125,-30.76171875,449.70703125,227.05078125,-20.01953125,NaN
1731719410543.0312,-79.58984375,223.14453125,43.45703125,-54.19921875,NaN
1731719410546.9375,-57.12890625,-555.17578125,-644.53125,-70.80078125,NaN
1731719410550.8438,-16.11328125,-341.796875,-503.41796875,-51.7578125,NaN
1731719410554.75,-27.83203125,200.1953125,-1.953125,-34.66796875,NaN
1731719410558.6562,-67.87109375,-208.0078125,-270.99609375,-64.453125,NaN
1731719410562.5625,-73.2421875,-888.671875,-897.4609375,-93.26171875,NaN
1731719410566.4688,-34.66796875,-630.37109375,-771.484375,-76.66015625,NaN
1731719410570.375,-23.92578125,216.30859375,-24.90234375,-41.9921875,NaN
1731719410574.2812,-50.78125,284.66796875,102.05078125,-33.203125,NaN
1731719410578.1875,-64.94140625,-658.69140625,-713.37890625,-49.31640625,NaN
1731719410582.0938,-37.109375,-678.7109375,-827.1484375,-62.01171875,NaN
1731719410586,3.90625,21.97265625,-253.90625,-31.73828125,NaN
1731719410589.9062,-31.25,137.20703125,-38.0859375,1.46484375,NaN
1731719410593.8125,-64.453125,-189.94140625,-305.6640625,-31.73828125,NaN
1731719410597.7188,-8.30078125,-191.40625,-449.21875,-35.64453125,NaN
1731719410601.625,30.2734375,-143.06640625,-408.203125,-14.16015625,NaN
1731719410605.5312,-8.7890625,-404.78515625,-468.26171875,-22.4609375,NaN
1731719410609.4375,-54.6875,-766.11328125,-763.671875,-29.296875,NaN
1731719410613.3438,-57.12890625,-541.9921875,-725.5859375,-56.640625,NaN
1731719410617.25,-26.85546875,-140.13671875,-431.15234375,-55.6640625,NaN
1731719410621.1562,-21.97265625,-280.76171875,-436.03515625,-14.16015625,NaN
1731719410625.0625,-58.10546875,-871.09375,-890.13671875,-8.7890625,NaN
1731719410628.9688,-79.58984375,-489.2578125,-665.52734375,-63.96484375,NaN
1731719410632.875,-38.0859375,-57.12890625,-368.65234375,-65.4296875,NaN
1731719410636.7812,-12.6953125,-211.9140625,-406.73828125,-12.6953125,NaN
1731719410640.6875,-58.10546875,-74.70703125,-196.77734375,-22.94921875,NaN
1731719410644.5938,-94.23828125,2.9296875,-190.4296875,-71.2890625,NaN
1731719410648.5,-50.29296875,-97.16796875,-386.71875,-81.54296875,NaN
1731719410652.4062,-3.41796875,-524.4140625,-671.38671875,-51.26953125,NaN
1731719410656.3125,-42.48046875,-647.94921875,-649.4140625,-42.48046875,NaN
1731719410660.2188,-103.515625,-570.80078125,-627.44140625,-71.2890625,NaN
1731719410664.125,-72.75390625,-624.51171875,-810.05859375,-83.49609375,NaN
1731719410668.0312,-0.48828125,-889.16015625,-978.02734375,-36.1328125,NaN
1731719410671.9375,-4.8828125,-673.33984375,-711.42578125,-3.41796875,NaN
1731719410675.8438,-69.82421875,71.77734375,-122.0703125,-41.9921875,NaN
1731719410679.75,-71.2890625,-253.41796875,-488.28125,-67.3828125,NaN
1731719410683.6562,-16.11328125,-645.99609375,-838.8671875,-56.640625,NaN
1731719410687.5625,-16.11328125,-185.546875,-354.98046875,-24.4140625,NaN
1731719410691.4688,-71.77734375,0.48828125,-165.0390625,-31.73828125,NaN
1731719410695.375,-75.1953125,-316.40625,-478.02734375,-67.3828125,NaN
1731719410699.2812,-18.5546875,-859.375,-962.890625,-52.734375,NaN
1731719410703.1875,-8.30078125,-581.54296875,-686.5234375,-23.4375,NaN
1731719410707.0938,-59.5703125,87.890625,-62.98828125,-40.52734375,NaN
1731719410711,-88.37890625,-241.2109375,-389.6484375,-78.125,NaN
1731719410714.9062,-53.22265625,-957.51953125,-989.2578125,-84.47265625,NaN
1731719410718.8125,-26.3671875,-702.1484375,-773.4375,-50.78125,NaN
1731719410722.7188,-51.7578125,82.51953125,-99.609375,-53.7109375,NaN
1731719410726.625,-77.1484375,-120.60546875,-267.08984375,-67.87109375,NaN
1731719410730.5312,-42.96875,-681.15234375,-856.4453125,-62.5,NaN
1731719410734.4375,-11.23046875,-254.39453125,-553.22265625,-55.6640625,NaN
1731719410738.3438,-44.43359375,207.51953125,-53.7109375,-37.59765625,NaN
1731719410742.25,-92.7734375,-333.0078125,-459.47265625,-64.94140625,NaN
1731719410746.1562,-85.9375,-915.52734375,-996.58203125,-94.23828125,NaN
1731719410750.0625,-24.90234375,-589.35546875,-770.99609375,-61.5234375,NaN
1731719410753.9688,-14.16015625,55.17578125,-166.9921875,-25.390625,NaN
1731719410757.875,-52.734375,-468.26171875,-512.6953125,-22.94921875,NaN
1731719410761.7812,-62.5,-703.125,-800.29296875,-64.453125,NaN
1731719410765.6875,-36.1328125,8.30078125,-298.828125,-86.9140625,NaN
1731719410769.5938,-7.32421875,175.29296875,-89.35546875,-50.78125,NaN
1731719410773.5,-28.3203125,-323.73046875,-403.80859375,-32.71484375,NaN
1731719410777.4062,-63.4765625,-487.3046875,-611.81640625,-46.875,NaN
1731719410781.3125,-40.0390625,-119.62890625,-417.96875,-45.8984375,NaN
1731719410785.2188,-1.46484375,-153.80859375,-413.57421875,-34.1796875,NaN
1731719410789.125,-25.87890625,-642.578125,-663.0859375,-35.15625,NaN
1731719410793.0312,-62.5,-674.31640625,-661.1328125,-60.546875,NaN
1731719410796.9375,-48.828125,-574.70703125,-696.2890625,-69.3359375,NaN
1731719410800.8438,-4.8828125,-548.33984375,-734.375,-53.7109375,NaN
1731719410804.75,-13.18359375,-767.578125,-820.3125,-23.4375,NaN
1731719410808.6562,-68.84765625,-222.65625,-319.82421875,-30.76171875,NaN
1731719410812.5625,-78.61328125,-96.19140625,-352.05078125,-73.73046875,NaN
1731719410816.4688,-16.11328125,-497.0703125,-729.4921875,-64.453125,NaN
1731719410820.375,-9.765625,-208.0078125,-366.69921875,-23.4375,NaN
1731719410824.2812,-69.82421875,97.16796875,-59.08203125,-42.48046875,NaN
1731719410828.1875,-77.1484375,-173.33984375,-373.53515625,-64.453125,NaN
1731719410832.0938,-37.109375,-695.80078125,-831.0546875,-57.12890625,NaN
1731719410836,-10.7421875,-377.44140625,-516.11328125,-46.875,NaN
1731719410839.9062,-44.921875,-215.8203125,-347.16796875,-24.4140625,NaN
1731719410843.8125,-85.9375,-623.53515625,-698.73046875,-24.4140625,NaN
1731719410847.7188,-67.87109375,-909.1796875,-958.984375,-66.89453125,NaN
1731719410851.625,-16.6015625,-773.4375,-832.03125,-60.546875,NaN
1731719410855.5312,-28.3203125,7.8125,-166.50390625,-35.15625,NaN
1731719410859.4375,-66.89453125,-46.38671875,-243.65234375,-32.71484375,NaN
1731719410863.3438,-51.7578125,-512.6953125,-696.2890625,-39.0625,NaN
1731719410867.25,-22.94921875,-308.10546875,-552.24609375,-55.17578125,NaN
1731719410871.1562,-22.4609375,84.47265625,-173.33984375,-31.73828125,NaN
1731719410875.0625,-49.31640625,-86.42578125,-258.7890625,-4.8828125,NaN
1731719410878.9688,-51.7578125,-539.55078125,-713.8671875,-42.48046875,NaN
1731719410882.875,-17.08984375,-514.16015625,-810.05859375,-55.17578125,NaN
1731719410886.7812,2.9296875,-593.75,-774.90234375,-14.6484375,NaN
1731719410890.6875,-38.57421875,-584.47265625,-611.328125,-14.16015625,NaN
1731719410894.5938,-62.5,-877.9296875,-877.9296875,-47.36328125,NaN
1731719410898.5,-27.34375,-783.69140625,-961.42578125,-61.5234375,NaN
1731719410902.4062,0,-159.1796875,-455.078125,-24.90234375,NaN
1731719410906.3125,-31.25,-15.13671875,-166.015625,0.9765625,NaN
1731719410910.2188,-52.734375,-174.8046875,-319.3359375,-25.390625,NaN
1731719410914.125,-36.62109375,-296.875,-593.75,-47.36328125,NaN
1731719410918.0312,-14.16015625,-244.62890625,-556.15234375,-46.38671875,NaN
1731719410921.9375,-24.90234375,-237.79296875,-382.8125,-37.59765625,NaN
1731719410925.8438,-71.2890625,-183.10546875,-305.6640625,-52.734375,NaN
1731719410929.75,-68.84765625,-235.3515625,-503.41796875,-76.171875,NaN
1731719410933.6562,-23.92578125,-594.23828125,-823.2421875,-70.3125,NaN
1731719410937.5625,-22.4609375,-873.53515625,-925.29296875,-18.06640625,NaN
1731719410941.4688,-78.61328125,-533.203125,-600.5859375,-25.390625,NaN
1731719410945.375,-85.44921875,-355.46875,-541.9921875,-67.3828125,NaN
1731719410949.2812,-28.3203125,-722.65625,-928.22265625,-88.8671875,NaN
1731719410953.1875,-0.48828125,-834.9609375,-912.109375,-57.6171875,NaN
1731719410957.0938,-36.1328125,-377.9296875,-459.9609375,-23.4375,NaN
1731719410961,-70.3125,-119.140625,-353.02734375,-62.5,NaN
1731719410964.9062,-48.33984375,-360.3515625,-625,-77.1484375,NaN
1731719410968.8125,-21.484375,-624.51171875,-823.2421875,-39.55078125,NaN
1731719410972.7188,-60.05859375,-200.1953125,-393.06640625,-25.390625,NaN
1731719410976.625,-97.65625,-73.73046875,-280.2734375,-22.94921875,NaN
1731719410980.5312,-54.6875,-868.1640625,-928.22265625,-38.0859375,NaN
1731719410984.4375,-13.18359375,-989.2578125,-988.28125,-53.22265625,NaN
1731719410988.3438,-40.52734375,-277.83203125,-424.31640625,-31.73828125,NaN
1731719410992.25,-75.68359375,-51.7578125,-279.78515625,-21.97265625,NaN
1731719410996.1562,-69.3359375,-340.8203125,-572.75390625,-38.57421875,NaN
1731719411000.0625,-21.97265625,-662.109375,-869.140625,-45.41015625,NaN
1731719411003.9688,-7.8125,-407.71484375,-559.5703125,-31.73828125,NaN
1731719411007.875,-55.6640625,50.78125,-144.04296875,-27.83203125,NaN
1731719411011.7812,-81.0546875,-437.98828125,-620.1171875,-38.0859375,NaN
1731719411015.6875,-35.15625,-858.88671875,-1000,-64.453125,NaN
1731719411019.5938,-9.27734375,-226.5625,-480.46875,-51.7578125,NaN
1731719411023.5,-58.59375,90.8203125,-119.140625,-44.43359375,NaN
1731719411027.4062,-83.984375,-703.125,-746.09375,-65.4296875,NaN
1731719411031.3125,-53.7109375,-997.55859375,-1000,-77.1484375,NaN
1731719411035.2188,-25.390625,-194.82421875,-462.40234375,-73.73046875,NaN
1731719411039.125,-49.8046875,115.234375,-107.91015625,-37.109375,NaN
1731719411043.0312,-85.44921875,-641.6015625,-692.87109375,-25.390625,NaN
1731719411046.9375,-66.89453125,-821.77734375,-1000,-69.82421875,NaN
1731719411050.8438,-24.90234375,-297.36328125,-628.41796875,-69.3359375,NaN
1731719411054.75,-25.390625,-172.36328125,-397.4609375,-31.25,NaN
1731719411058.6562,-60.546875,-572.265625,-638.671875,-38.0859375,NaN
1731719411062.5625,-49.8046875,-743.1640625,-846.6796875,-60.546875,NaN
1731719411066.4688,-7.8125,-373.53515625,-665.0390625,-62.5,NaN
1731719411070.375,4.8828125,-190.91796875,-439.453125,-21.484375,NaN
1731719411074.2812,-31.73828125,-852.5390625,-869.62890625,4.8828125,NaN
1731719411078.1875,-51.7578125,-940.91796875,-985.83984375,-24.4140625,NaN
1731719411082.0938,-23.4375,-266.6015625,-525.87890625,-33.69140625,NaN
1731719411086,1.953125,-391.6015625,-588.37890625,-15.625,NaN
1731719411089.9062,-14.6484375,-732.91015625,-775.390625,7.32421875,NaN
1731719411093.8125,-58.59375,-373.53515625,-524.90234375,-36.1328125,NaN
1731719411097.7188,-44.921875,-240.234375,-517.578125,-74.70703125,NaN
1731719411101.625,18.5546875,-434.5703125,-675.29296875,-33.69140625,NaN
1731719411105.5312,6.34765625,-240.72265625,-400.390625,0.9765625,NaN
1731719411109.4375,-58.10546875,-38.0859375,-233.3984375,-13.18359375,NaN
1731719411113.3438,-58.10546875,-250.48828125,-545.8984375,-48.828125,NaN
1731719411117.25,-13.671875,-614.74609375,-824.21875,-44.43359375,NaN
1731719411121.1562,-8.30078125,-660.64453125,-673.33984375,-17.578125,NaN
1731719411125.0625,-52.734375,-349.609375,-377.44140625,-44.921875,NaN
1731719411128.9688,-72.265625,-376.46484375,-576.66015625,-71.2890625,NaN
1731719411132.875,-31.25,-925.29296875,-1000,-49.8046875,NaN
1731719411136.7812,-21.484375,-709.9609375,-736.328125,-32.71484375,NaN
1731719411140.6875,-68.84765625,216.30859375,47.36328125,-39.55078125,NaN
1731719411144.5938,-87.890625,-165.52734375,-371.58203125,-59.08203125,NaN
1731719411148.5,-41.9921875,-653.80859375,-861.328125,-67.3828125,NaN
1731719411152.4062,0.48828125,-263.18359375,-508.7890625,-41.9921875,NaN
1731719411156.3125,-28.80859375,-3.90625,-222.16796875,-15.13671875,NaN
1731719411160.2188,-80.56640625,-268.06640625,-435.546875,-50.29296875,NaN
1731719411164.125,-53.7109375,-774.90234375,-929.19921875,-78.61328125,NaN
1731719411168.0312,-4.8828125,-811.5234375,-969.7265625,-54.6875,NaN
1731719411171.9375,-14.16015625,-534.1796875,-647.4609375,-18.5546875,NaN
1731719411175.8438,-51.7578125,-631.34765625,-705.078125,-29.296875,NaN
1731719411179.75,-51.7578125,-1000,-1000,-45.41015625,NaN
1731719411183.6562,-8.30078125,-844.7265625,-1000,-42.96875,NaN
1731719411187.5625,18.5546875,-410.15625,-679.6875,-8.7890625,NaN
1731719411191.4688,-23.92578125,-429.6875,-583.0078125,-9.27734375,NaN
1731719411195.375,-47.36328125,-688.96484375,-870.1171875,-53.7109375,NaN
1731719411199.2812,8.30078125,-520.01953125,-838.37890625,-51.26953125,NaN
1731719411203.1875,20.01953125,-338.37890625,-623.046875,-16.6015625,NaN
1731719411207.0938,-32.71484375,-544.43359375,-688.4765625,-19.53125,NaN
1731719411211,-60.546875,-815.91796875,-926.26953125,-48.33984375,NaN
1731719411214.9062,-34.1796875,-966.30859375,-1000,-61.03515625,NaN
1731719411218.8125,0.9765625,-968.75,-975.09765625,-51.7578125,NaN
1731719411222.7188,-19.53125,-939.453125,-958.0078125,-24.90234375,NaN
1731719411226.625,-68.84765625,-812.01171875,-907.2265625,-35.64453125,NaN
1731719411230.5312,-51.7578125,-591.796875,-844.23828125,-65.4296875,NaN
1731719411234.4375,12.20703125,-743.65234375,-938.4765625,-35.15625,NaN
1731719411238.3438,5.859375,-812.98828125,-863.28125,8.30078125,NaN
1731719411242.25,-61.5234375,-409.1796875,-551.7578125,-30.76171875,NaN
1731719411246.1562,-75.68359375,-230.95703125,-541.015625,-68.84765625,NaN
1731719411250.0625,-17.578125,-509.765625,-804.6875,-29.296875,NaN
1731719411253.9688,-5.37109375,-472.65625,-677.734375,-7.8125,NaN
1731719411257.875,-53.22265625,-149.4140625,-388.671875,-23.92578125,NaN
1731719411261.7812,-76.171875,-621.58203125,-790.0390625,-48.828125,NaN
1731719411265.6875,-35.64453125,-1000,-1000,-55.17578125,NaN
1731719411269.5938,10.25390625,-919.921875,-932.12890625,-0.48828125,NaN
1731719411273.5,-20.5078125,-205.078125,-356.93359375,24.4140625,NaN
1731719411277.4062,-42.96875,90.33203125,-183.10546875,-8.30078125,NaN
1731719411281.3125,7.8125,-303.7109375,-598.6328125,-28.3203125,NaN
1731719411285.2188,35.64453125,-357.421875,-598.14453125,-11.23046875,NaN
1731719411289.125,-9.27734375,-269.53125,-409.66796875,1.46484375,NaN
1731719411293.0312,-57.6171875,-292.96875,-451.171875,-17.578125,NaN
1731719411296.9375,-33.69140625,-593.26171875,-769.04296875,-32.2265625,NaN
1731719411300.8438,10.7421875,-701.66015625,-880.859375,-8.7890625,NaN
1731719411304.75,-7.8125,-241.2109375,-460.44921875,-3.41796875,NaN
1731719411308.6562,-55.6640625,-414.0625,-530.2734375,-35.15625,NaN
1731719411312.5625,-57.12890625,-943.359375,-966.30859375,-51.26953125,NaN
1731719411316.4688,-24.4140625,-742.1875,-895.01953125,-52.24609375,NaN
1731719411320.375,-15.625,-246.09375,-538.57421875,-31.25,NaN
1731719411324.2812,-35.64453125,-206.54296875,-405.2734375,-30.2734375,NaN
1731719411328.1875,-51.26953125,-768.5546875,-857.421875,-41.015625,NaN
1731719411332.0938,-34.1796875,-679.19921875,-925.78125,-58.10546875,NaN
1731719411336,-15.625,-192.3828125,-517.08984375,-52.24609375,NaN
1731719411339.9062,-52.24609375,-190.4296875,-411.1328125,-30.76171875,NaN
1731719411343.8125,-102.5390625,-755.37109375,-848.14453125,-57.6171875,NaN
1731719411347.7188,-83.49609375,-1000,-1000,-83.984375,NaN
1731719411351.625,-31.73828125,-531.25,-723.6328125,-51.7578125,NaN
1731719411355.5312,-36.1328125,-409.66796875,-526.3671875,-14.6484375,NaN
1731719411359.4375,-75.1953125,-927.24609375,-904.78515625,-42.96875,NaN
1731719411363.3438,-67.87109375,-684.5703125,-838.37890625,-75.1953125,NaN
1731719411367.25,-12.20703125,-110.3515625,-415.52734375,-52.24609375,NaN
1731719411371.1562,6.34765625,-136.71875,-323.2421875,-13.18359375,NaN
1731719411375.0625,-54.19921875,-293.45703125,-419.43359375,-32.71484375,NaN
1731719411378.9688,-67.87109375,-260.7421875,-512.20703125,-57.12890625,NaN
1731719411382.875,-18.5546875,-254.8828125,-574.70703125,-51.26953125,NaN
1731719411386.7812,-2.9296875,-333.49609375,-533.203125,-34.66796875,NaN
1731719411390.6875,-34.1796875,-338.37890625,-457.03125,-40.0390625,NaN
1731719411394.5938,-64.94140625,-319.82421875,-554.19921875,-70.80078125,NaN
1731719411398.5,-36.1328125,-541.015625,-825.1953125,-89.35546875,NaN
1731719411402.4062,10.25390625,-899.90234375,-981.4453125,-42.96875,NaN
1731719411406.3125,-22.94921875,-867.67578125,-846.19140625,-7.32421875,NaN
1731719411410.2188,-79.58984375,-407.71484375,-484.375,-31.73828125,NaN
1731719411414.125,-53.7109375,-223.14453125,-475.09765625,-65.91796875,NaN
1731719411418.0312,-4.8828125,-746.58203125,-871.09375,-52.734375,NaN
1731719411421.9375,-15.13671875,-662.59765625,-683.59375,-19.04296875,NaN
1731719411425.8438,-62.98828125,-190.91796875,-370.60546875,-46.875,NaN
1731719411429.75,-77.1484375,-417.96875,-684.08203125,-72.265625,NaN
1731719411433.6562,-40.52734375,-563.96484375,-811.5234375,-45.41015625,NaN
1731719411437.5625,-35.64453125,-230.46875,-434.08203125,-5.37109375,NaN
1731719411441.4688,-88.37890625,-57.6171875,-272.94921875,-20.01953125,NaN
1731719411445.375,-82.03125,-389.16015625,-600.5859375,-53.22265625,NaN
1731719411449.2812,-28.80859375,-974.609375,-1000,-60.546875,NaN
1731719411453.1875,-18.06640625,-727.05078125,-794.921875,-25.87890625,NaN
1731719411457.0938,-51.7578125,52.734375,-130.37109375,-9.765625,NaN
1731719411461,-83.0078125,-311.03515625,-453.125,-40.0390625,NaN
1731719411464.9062,-57.12890625,-966.30859375,-1000,-51.26953125,NaN
1731719411468.8125,-10.7421875,-417.96875,-600.5859375,-23.4375,NaN
1731719411472.7188,-20.99609375,132.32421875,-124.51171875,-12.6953125,NaN
1731719411476.625,-59.08203125,-192.3828125,-364.2578125,-32.71484375,NaN
1731719411480.5312,-62.5,-586.9140625,-832.51953125,-66.40625,NaN
1731719411484.4375,-17.578125,-556.640625,-880.37109375,-55.17578125,NaN
1731719411488.3438,-10.7421875,-253.90625,-509.765625,-21.97265625,NaN
1731719411492.25,-65.4296875,-427.24609375,-562.5,-50.78125,NaN
1731719411496.1562,-81.54296875,-958.49609375,-996.58203125,-92.28515625,NaN
1731719411500.0625,-36.62109375,-844.23828125,-969.7265625,-81.0546875,NaN
1731719411503.9688,-11.23046875,-255.37109375,-473.14453125,-40.0390625,NaN
1731719411507.875,-48.828125,-640.13671875,-687.01171875,-24.90234375,NaN
1731719411511.7812,-75.1953125,-889.16015625,-976.07421875,-53.7109375,NaN
1731719411515.6875,-39.0625,-397.94921875,-677.734375,-70.80078125,NaN
1731719411519.5938,5.37109375,-618.65234375,-787.109375,-36.62109375,NaN
1731719411523.5,-21.484375,-889.6484375,-913.0859375,-6.34765625,NaN
1731719411527.4062,-71.2890625,-616.69921875,-747.55859375,-31.25,NaN
1731719411531.3125,-45.8984375,-458.0078125,-746.09375,-61.5234375,NaN
1731719411535.2188,-7.32421875,-557.6171875,-796.38671875,-48.33984375,NaN
1731719411539.125,-29.78515625,-468.26171875,-583.49609375,-24.4140625,NaN
1731719411543.0312,-75.68359375,-657.2265625,-719.7265625,-28.80859375,NaN
1731719411546.9375,-83.49609375,-799.31640625,-945.80078125,-63.4765625,NaN
1731719411550.8438,-20.99609375,-575.68359375,-799.31640625,-51.7578125,NaN
1731719411554.75,-0.48828125,-830.56640625,-884.27734375,-5.37109375,NaN
1731719411558.6562,-58.10546875,-548.828125,-661.1328125,-29.296875,NaN
1731719411562.5625,-57.12890625,-273.92578125,-560.05859375,-64.453125,NaN
1731719411566.4688,-15.625,-465.33203125,-739.2578125,-61.5234375,NaN
1731719411570.375,-3.41796875,-280.2734375,-496.58203125,-26.3671875,NaN
1731719411574.2812,-39.55078125,-21.484375,-179.19921875,-19.04296875,NaN
1731719411578.1875,-79.1015625,-447.75390625,-612.79296875,-66.89453125,NaN
1731719411582.0938,-42.48046875,-786.62109375,-958.0078125,-70.3125,NaN
1731719411586,-8.7890625,-511.23046875,-646.97265625,-33.203125,NaN
1731719411589.9062,-29.296875,-345.703125,-438.96484375,-7.8125,NaN
1731719411593.8125,-59.08203125,-582.51953125,-642.578125,-28.80859375,NaN
1731719411597.7188,-39.0625,-869.62890625,-926.26953125,-64.94140625,NaN
1731719411601.625,4.39453125,-755.37109375,-863.28125,-55.6640625,NaN
1731719411605.5312,-15.625,-83.984375,-304.6875,-24.4140625,NaN
1731719411609.4375,-64.453125,-185.05859375,-368.1640625,-44.43359375,NaN
1731719411613.3438,-67.87109375,-683.10546875,-856.93359375,-60.546875,NaN
1731719411617.25,-31.25,-502.44140625,-779.296875,-43.45703125,NaN
1731719411621.1562,-14.6484375,-279.78515625,-571.2890625,-18.06640625,NaN
1731719411625.0625,-53.7109375,-507.32421875,-697.75390625,-23.4375,NaN
1731719411628.9688,-69.82421875,-870.60546875,-955.56640625,-62.01171875,NaN
1731719411632.875,-20.99609375,-945.3125,-1000,-76.66015625,NaN
1731719411636.7812,-6.34765625,-795.41015625,-902.83203125,-39.0625,NaN
1731719411640.6875,-50.78125,-715.8203125,-763.18359375,-19.04296875,NaN
1731719411644.5938,-81.54296875,-965.33203125,-958.0078125,-51.7578125,NaN
1731719411648.5,-43.45703125,-830.56640625,-989.74609375,-62.5,NaN
1731719411652.4062,13.671875,-271.484375,-559.08203125,-29.296875,NaN
1731719411656.3125,-15.13671875,-222.65625,-382.8125,-8.7890625,NaN
1731719411660.2188,-72.75390625,-400.87890625,-555.17578125,-29.296875,NaN
1731719411664.125,-43.45703125,-336.9140625,-638.18359375,-36.62109375,NaN
1731719411668.0312,9.765625,-308.59375,-613.28125,-36.62109375,NaN
1731719411671.9375,1.46484375,-383.30078125,-532.2265625,-29.78515625,NaN
1731719411675.8438,-53.7109375,-215.8203125,-334.47265625,-34.66796875,NaN
1731719411679.75,-45.8984375,-114.2578125,-357.91015625,-78.125,NaN
1731719411683.6562,4.39453125,-532.71484375,-721.6796875,-63.4765625,NaN
1731719411687.5625,-1.46484375,-887.20703125,-915.0390625,-13.18359375,NaN
1731719411691.4688,-52.24609375,-824.21875,-833.49609375,-28.80859375,NaN
1731719411695.375,-62.98828125,-378.41796875,-587.890625,-63.4765625,NaN
1731719411699.2812,-13.18359375,-369.140625,-703.61328125,-42.48046875,NaN
1731719411703.1875,7.32421875,-813.96484375,-920.41015625,-0.48828125,NaN
1731719411707.0938,-30.2734375,-453.125,-524.90234375,-11.23046875,NaN
1731719411711,-58.10546875,15.13671875,-255.37109375,-51.7578125,NaN
1731719411714.9062,-41.9921875,-327.1484375,-607.91015625,-61.5234375,NaN
1731719411718.8125,-13.671875,-655.2734375,-844.23828125,-29.296875,NaN
1731719411722.7188,-28.3203125,-150.87890625,-358.88671875,-10.25390625,NaN
1731719411726.625,-65.4296875,-155.2734375,-362.3046875,-20.99609375,NaN
1731719411730.5312,-44.921875,-926.7578125,-964.35546875,-46.875,NaN
1731719411734.4375,2.44140625,-1000,-1000,-34.66796875,NaN
1731719411738.3438,-5.37109375,-344.7265625,-483.3984375,5.37109375,NaN
1731719411742.25,-53.22265625,-68.359375,-269.53125,-12.6953125,NaN
1731719411746.1562,-65.91796875,-577.1484375,-713.8671875,-54.19921875,NaN
1731719411750.0625,-17.578125,-936.03515625,-1000,-42.96875,NaN
1731719411753.9688,0.48828125,-380.859375,-575.1953125,-18.06640625,NaN
1731719411757.875,-38.57421875,-60.05859375,-271.484375,-15.13671875,NaN
1731719411761.7812,-52.734375,-585.9375,-721.19140625,-34.66796875,NaN
1731719411765.6875,-21.484375,-668.45703125,-862.79296875,-37.109375,NaN
1731719411769.5938,-8.30078125,-229.4921875,-510.25390625,-2.9296875,NaN
1731719411773.5,-41.50390625,-26.3671875,-246.58203125,4.39453125,NaN
1731719411777.4062,-66.40625,-641.11328125,-715.33203125,-30.76171875,NaN
1731719411781.3125,-36.1328125,-1000,-1000,-55.17578125,NaN
1731719411785.2188,-1.953125,-375,-600.09765625,-40.52734375,NaN
1731719411789.125,-19.04296875,-42.48046875,-263.671875,-5.37109375,NaN
1731719411793.0312,-62.5,-719.7265625,-772.94921875,-26.85546875,NaN
1731719411796.9375,-56.15234375,-743.65234375,-900.390625,-62.01171875,NaN
1731719411800.8438,-4.39453125,-209.47265625,-503.90625,-41.50390625,NaN
1731719411804.75,4.39453125,-379.39453125,-497.55859375,-8.30078125,NaN
1731719411808.6562,-41.015625,-818.359375,-838.37890625,-13.671875,NaN
1731719411812.5625,-56.640625,-502.9296875,-711.42578125,-48.828125,NaN
1731719411816.4688,-15.625,-235.83984375,-577.1484375,-48.33984375,NaN
1731719411820.375,-17.08984375,-185.05859375,-448.2421875,-11.71875,NaN
1731719411824.2812,-73.2421875,-547.36328125,-633.30078125,-5.859375,NaN
1731719411828.1875,-91.30859375,-795.8984375,-904.78515625,-42.48046875,NaN
1731719411832.0938,-32.71484375,-549.31640625,-852.5390625,-67.3828125,NaN
1731719411836,1.953125,-525.390625,-768.5546875,-27.34375,NaN
1731719411839.9062,-23.4375,-828.125,-872.0703125,-1.46484375,NaN
1731719411843.8125,-62.5,-604.98046875,-728.02734375,-35.64453125,NaN
1731719411847.7188,-34.1796875,-335.9375,-618.1640625,-46.875,NaN
1731719411851.625,9.765625,-442.3828125,-684.5703125,-28.3203125,NaN
1731719411855.5312,-22.4609375,-345.703125,-490.72265625,-18.5546875,NaN
1731719411859.4375,-75.1953125,-249.51171875,-428.7109375,-28.80859375,NaN
1731719411863.3438,-56.640625,-672.8515625,-828.125,-60.546875,NaN
1731719411867.25,5.859375,-988.28125,-1000,-37.109375,NaN
1731719411871.1562,6.34765625,-825.1953125,-819.3359375,18.5546875,NaN
1731719411875.0625,-39.55078125,-478.02734375,-542.96875,-6.34765625,NaN
1731719411878.9688,-67.3828125,-369.140625,-583.0078125,-60.546875,NaN
1731719411882.875,-24.90234375,-841.30859375,-958.0078125,-43.45703125,NaN
1731719411886.7812,11.71875,-604.00390625,-681.15234375,5.859375,NaN
1731719411890.6875,-37.59765625,306.640625,103.515625,-14.6484375,NaN
1731719411894.5938,-78.61328125,90.8203125,-125.9765625,-53.7109375,NaN
1731719411898.5,-43.9453125,-512.6953125,-734.375,-65.91796875,NaN
1731719411902.4062,0.48828125,-259.765625,-528.80859375,-54.19921875,NaN
1731719411906.3125,-27.34375,59.08203125,-164.55078125,-24.90234375,NaN
1731719411910.2188,-83.984375,-159.1796875,-343.75,-51.26953125,NaN
1731719411914.125,-61.03515625,-687.5,-876.953125,-66.89453125,NaN
1731719411918.0312,-4.39453125,-775.87890625,-939.94140625,-30.2734375,NaN
1731719411921.9375,-15.13671875,-564.94140625,-670.41015625,2.44140625,NaN
1731719411925.8438,-63.4765625,-526.3671875,-579.58984375,-22.94921875,NaN
1731719411929.75,-63.96484375,-910.15625,-929.6875,-57.6171875,NaN
1731719411933.6562,-22.94921875,-667.96875,-820.80078125,-44.43359375,NaN
1731719411937.5625,-20.01953125,-38.57421875,-280.2734375,-13.18359375,NaN
1731719411941.4688,-54.19921875,-138.18359375,-279.78515625,-10.7421875,NaN
1731719411945.375,-61.03515625,-489.74609375,-665.0390625,-51.7578125,NaN
1731719411949.2812,-17.08984375,-360.3515625,-669.43359375,-61.03515625,NaN
1731719411953.1875,-3.90625,16.6015625,-252.9296875,-32.71484375,NaN
1731719411957.0938,-40.52734375,23.4375,-119.62890625,-26.85546875,NaN
1731719411961,-68.359375,-81.0546875,-263.671875,-48.828125,NaN
1731719411964.9062,-43.9453125,-344.23828125,-565.91796875,-60.546875,NaN
1731719411968.8125,-3.41796875,-254.39453125,-429.6875,-26.3671875,NaN
1731719411972.7188,-19.53125,-421.38671875,-462.890625,-4.8828125,NaN
1731719411976.625,-64.453125,-770.5078125,-757.8125,-40.0390625,NaN
1731719411980.5312,-50.29296875,-155.76171875,-365.234375,-59.5703125,NaN
1731719411984.4375,-5.859375,119.140625,-193.359375,-39.0625,NaN
1731719411988.3438,-17.08984375,-469.7265625,-556.640625,-11.23046875,NaN
1731719411992.25,-82.03125,-351.5625,-435.05859375,-36.62109375,NaN
1731719411996.1562,-89.35546875,-7.32421875,-268.06640625,-76.171875,NaN
1731719412000.0625,-33.203125,-147.94921875,-409.66796875,-58.10546875,NaN
1731719412003.9688,-17.578125,-221.19140625,-377.9296875,-14.6484375,NaN
1731719412007.875,-48.33984375,-2.44140625,-155.2734375,-20.5078125,NaN
1731719412011.7812,-65.91796875,-275.390625,-413.57421875,-70.3125,NaN
1731719412015.6875,-33.203125,-602.5390625,-711.9140625,-68.359375,NaN
1731719412019.5938,-5.859375,-763.18359375,-815.91796875,-21.484375,NaN
1731719412023.5,-44.921875,-142.578125,-252.9296875,-2.44140625,NaN
