time,TP9,AF7,AF8,TP10,AUX
1731718805792.625,-802.24609375,-158.69140625,-741.69921875,-1000,-1000
1731718805796.5312,-490.72265625,-130.859375,-952.1484375,-810.05859375,-814.94140625
1731718805800.4375,-408.203125,-147.4609375,-1000,-439.94140625,-476.07421875
1731718805804.3438,-582.51953125,-119.140625,-981.93359375,-871.09375,-882.32421875
1731718805808.25,-732.421875,-88.8671875,-839.84375,-1000,-1000
1731718805812.1562,-692.3828125,-168.9453125,-888.671875,-488.76953125,-459.9609375
1731718805816.0625,-538.57421875,-151.85546875,-963.8671875,228.515625,403.80859375
1731718805819.9688,-551.7578125,-100.5859375,-980.46875,-425.29296875,-399.4140625
1731718805823.875,-725.09765625,-98.6328125,-895.99609375,-1000,-1000
1731718805827.7812,-721.6796875,-119.140625,-820.80078125,-619.62890625,-592.28515625
1731718805831.6875,-591.796875,-145.99609375,-943.84765625,269.04296875,416.9921875
1731718805835.5938,-535.15625,-132.32421875,-1000,-306.15234375,-254.8828125
1731718805839.5,-703.61328125,-92.28515625,-943.359375,-1000,-1000
1731718805843.4062,-846.19140625,-141.11328125,-764.6484375,-639.16015625,-585.44921875
1731718805847.3125,-544.43359375,-178.22265625,-910.64453125,-337.40234375,-280.2734375
1731718805851.2188,-323.2421875,-103.02734375,-1000,-663.57421875,-728.515625
1731718805855.125,-632.8125,-107.421875,-971.6796875,-1000,-1000
1731718805859.0312,-922.36328125,-117.67578125,-604.00390625,-280.76171875,-78.125
1731718805862.9375,-670.41015625,-122.55859375,-751.953125,351.07421875,603.515625
1731718805866.8438,-327.63671875,-131.8359375,-1000,-393.5546875,-383.30078125
1731718805870.75,-484.86328125,-77.63671875,-982.91015625,-872.0703125,-996.09375
1731718805874.6562,-932.12890625,-128.90625,-609.375,-67.3828125,84.9609375
1731718805878.5625,-766.11328125,-145.5078125,-729.4921875,124.51171875,249.51171875
1731718805882.4688,-288.57421875,-91.796875,-1000,-671.38671875,-747.0703125
1731718805886.375,-451.171875,-84.47265625,-981.93359375,-750.9765625,-857.91015625
1731718805890.2812,-829.1015625,-90.8203125,-748.046875,-530.2734375,-670.41015625
1731718805894.1875,-693.359375,-137.6953125,-822.75390625,-665.0390625,-774.4140625
1731718805898.0938,-285.15625,-121.09375,-1000,-785.15625,-876.46484375
1731718805902,-383.30078125,-91.30859375,-992.67578125,-485.83984375,-508.7890625
1731718805905.9062,-829.1015625,-82.03125,-695.80078125,7.8125,127.9296875
1731718805909.8125,-777.83203125,-96.19140625,-639.6484375,-250.48828125,-241.2109375
1731718805913.7188,-369.140625,-124.51171875,-962.40234375,-617.67578125,-690.4296875
1731718805917.625,-346.19140625,-98.14453125,-1000,-311.03515625,-300.78125
1731718805921.5312,-707.03125,-110.3515625,-928.7109375,-198.73046875,-165.0390625
1731718805925.4375,-708.49609375,-81.54296875,-844.7265625,-863.28125,-946.77734375
1731718805929.3438,-285.64453125,-50.29296875,-945.80078125,-798.33984375,-937.01171875
1731718805933.25,-391.6015625,-119.140625,-1000,-155.76171875,-126.46484375
1731718805937.1562,-422.8515625,-88.8671875,-988.28125,-352.5390625,-327.63671875
1731718805941.0625,456.0546875,-3.90625,-904.78515625,-1000,-1000
1731718805944.9688,11.71875,-64.94140625,-951.66015625,-881.34765625,-931.15234375
1731718805948.875,-657.2265625,-133.7890625,-1000,142.578125,266.6015625
1731718805952.7812,-693.359375,-122.55859375,-923.33984375,446.77734375,616.69921875
1731718805956.6875,322.265625,22.94921875,-713.37890625,-398.4375,-390.625
1731718805960.5938,71.77734375,-51.7578125,-850.5859375,-851.5625,-918.45703125
1731718805964.5,-826.66015625,-177.734375,-991.2109375,248.046875,383.30078125
1731718805968.4062,-1000,-123.046875,-792.96875,968.75,985.3515625
1731718805972.3125,-389.16015625,-42.48046875,-912.59765625,-565.91796875,-719.7265625
1731718805976.2188,53.7109375,-18.5546875,-939.453125,-1000,-1000
1731718805980.125,-583.984375,-76.66015625,-963.8671875,-227.5390625,-184.5703125
1731718805984.0312,-778.3203125,-110.83984375,-1000,-461.9140625,-538.0859375
1731718805987.9375,-581.54296875,-59.5703125,-991.2109375,-963.8671875,-1000
1731718805991.8438,156.25,42.96875,-883.7890625,-903.3203125,-922.36328125
1731718805995.75,-481.4453125,-72.75390625,-936.5234375,-512.20703125,-551.26953125
1731718805999.6562,-1000,-120.60546875,-1000,-104.00390625,-77.63671875
1731718806003.5625,-735.83984375,-100.5859375,-1000,-259.765625,-309.5703125
1731718806007.4688,388.18359375,56.15234375,-731.93359375,-556.640625,-579.1015625
1731718806011.375,-444.82421875,-21.97265625,-573.2421875,595.21484375,673.33984375
1731718806015.2812,-1000,-192.3828125,-930.17578125,448.73046875,421.38671875
1731718806019.1875,-852.05078125,-85.44921875,-1000,-672.36328125,-810.546875
1731718806023.0938,406.73828125,210.9375,-820.80078125,-862.3046875,-952.1484375
1731718806027,-246.09375,116.69921875,-841.796875,-880.37109375,-931.15234375
1731718806030.9062,-1000,-131.8359375,-1000,-705.56640625,-800.78125
1731718806034.8125,-1000,-207.51953125,-1000,-652.83203125,-758.7890625
1731718806038.7188,-52.24609375,-72.265625,-894.53125,-683.59375,-785.64453125
1731718806042.625,110.83984375,154.78515625,-690.91796875,-826.66015625,-894.53125
1731718806046.5312,-987.79296875,-124.0234375,-918.9453125,-395.01953125,-357.91015625
1731718806050.4375,-1000,-273.4375,-1000,-88.37890625,41.9921875
1731718806054.3438,-667.96875,-89.84375,-744.62890625,287.59765625,497.55859375
1731718806058.25,245.60546875,26.3671875,-576.66015625,-77.63671875,11.23046875
1731718806062.1562,-680.17578125,-156.25,-950.68359375,-839.84375,-943.359375
1731718806066.0625,-1000,-187.01171875,-1000,-140.13671875,-7.8125
1731718806069.9688,-757.8125,-148.4375,-888.671875,197.75390625,382.8125
1731718806073.875,412.109375,34.1796875,-831.54296875,-767.08984375,-755.859375
1731718806077.7812,-465.33203125,-67.87109375,-927.734375,-1000,-1000
1731718806081.6875,-1000,-290.0390625,-1000,-507.8125,-527.34375
1731718806085.5938,-941.89453125,-217.7734375,-974.12109375,-138.18359375,-55.17578125
1731718806089.5,96.19140625,-21.484375,-825.1953125,-730.46875,-738.76953125
1731718806093.4062,-384.765625,-98.14453125,-768.06640625,-763.18359375,-808.10546875
1731718806097.3125,-1000,-240.234375,-944.3359375,110.3515625,186.5234375
1731718806101.2188,-1000,-244.62890625,-985.3515625,325.68359375,314.453125
1731718806105.125,-750.9765625,-209.9609375,-967.28515625,-644.04296875,-746.09375
1731718806109.0312,-416.9921875,-193.359375,-915.52734375,-1000,-1000
1731718806112.9375,-922.8515625,-167.48046875,-916.9921875,-286.62109375,-259.27734375
1731718806116.8438,-1000,-179.19921875,-924.8046875,471.19140625,478.515625
1731718806120.75,-782.2265625,-301.26953125,-965.33203125,-520.5078125,-615.72265625
1731718806124.6562,92.28515625,-120.60546875,-648.92578125,-870.60546875,-996.58203125
1731718806128.5625,-711.42578125,-136.23046875,-703.125,-197.265625,-134.765625
1731718806132.4688,-1000,-327.63671875,-1000,-180.6640625,-28.80859375
1731718806136.375,-915.52734375,-213.8671875,-996.09375,-764.16015625,-836.42578125
1731718806140.2812,-674.31640625,-105.95703125,-606.93359375,-661.62109375,-763.18359375
1731718806144.1875,-879.39453125,-238.28125,-559.5703125,-68.84765625,128.90625
1731718806148.0938,-1000,-321.2890625,-951.171875,-236.81640625,-52.734375
1731718806152,-976.07421875,-240.234375,-1000,-790.52734375,-856.93359375
1731718806155.9062,-1000,-149.4140625,-851.07421875,-982.421875,-1000
1731718806159.8125,-1000,-301.26953125,-607.421875,-14.6484375,173.33984375
1731718806163.7188,-992.67578125,-287.59765625,-834.9609375,497.55859375,588.8671875
1731718806167.625,-976.07421875,-126.46484375,-1000,-492.1875,-541.9921875
1731718806171.5312,-996.09375,-234.86328125,-954.1015625,-914.0625,-924.8046875
1731718806175.4375,-1000,-261.71875,-716.30859375,-840.8203125,-935.05859375
1731718806179.3438,-999.0234375,-195.80078125,-861.328125,-520.99609375,-526.3671875
1731718806183.25,-960.44921875,-205.56640625,-1000,-358.88671875,-293.9453125
1731718806187.1562,-970.703125,-198.73046875,-900.390625,-383.30078125,-279.296875
1731718806191.0625,-1000,-241.2109375,-379.39453125,514.16015625,711.42578125
1731718806194.9688,-926.7578125,-253.41796875,-604.98046875,270.01953125,254.8828125
1731718806198.875,-737.3046875,-227.05078125,-1000,-660.15625,-723.14453125
1731718806202.7812,-892.08984375,-242.67578125,-985.3515625,-661.62109375,-736.328125
1731718806206.6875,-1000,-193.359375,-800.29296875,-836.9140625,-879.8828125
1731718806210.5938,-954.1015625,-168.45703125,-811.5234375,-1000,-1000
1731718806214.5,-768.5546875,-225.5859375,-998.53515625,-798.33984375,-825.68359375
1731718806218.4062,-883.7890625,-303.7109375,-1000,-517.08984375,-507.8125
1731718806222.3125,-1000,-197.75390625,-835.9375,-754.39453125,-773.4375
1731718806226.2188,-995.60546875,-209.9609375,-743.65234375,-1000,-1000
1731718806230.125,-748.53515625,-260.25390625,-972.16796875,-782.2265625,-791.50390625
1731718806234.0312,-758.30078125,-157.2265625,-886.23046875,60.546875,272.94921875
1731718806237.9375,-1000,-207.03125,-703.61328125,-103.515625,86.9140625
1731718806241.8438,-1000,-260.7421875,-599.12109375,-716.30859375,-730.46875
1731718806245.75,-847.16796875,-281.73828125,-864.74609375,-600.5859375,-576.171875
1731718806249.6562,-696.2890625,-254.8828125,-1000,0,196.2890625
1731718806253.5625,-784.66796875,-198.2421875,-944.3359375,-446.2890625,-394.53125
1731718806257.4688,-984.86328125,-249.0234375,-811.03515625,-1000,-1000
1731718806261.375,-877.44140625,-238.28125,-835.44921875,-907.2265625,-852.5390625
1731718806265.2812,-888.671875,-283.203125,-834.9609375,470.703125,635.25390625
1731718806269.1875,-990.72265625,-317.3828125,-791.50390625,511.23046875,489.74609375
1731718806273.0938,-927.24609375,-202.1484375,-735.83984375,-931.15234375,-998.53515625
1731718806277,-881.8359375,-216.30859375,-687.5,-947.75390625,-934.5703125
1731718806280.9062,-709.47265625,-260.25390625,-934.5703125,-240.234375,-52.24609375
1731718806284.8125,-703.125,-261.23046875,-1000,-207.51953125,-33.203125
1731718806288.7188,-916.50390625,-239.74609375,-934.5703125,-977.05078125,-1000
1731718806292.625,-1000,-277.34375,-734.86328125,-844.23828125,-813.96484375
1731718806296.5312,-967.28515625,-324.70703125,-748.53515625,430.6640625,590.8203125
1731718806300.4375,-639.6484375,-228.02734375,-1000,-173.33984375,-119.140625
1731718806304.3438,-630.37109375,-150.87890625,-957.51953125,-1000,-1000
1731718806308.25,-834.47265625,-138.671875,-462.40234375,-663.0859375,-647.4609375
1731718806312.1562,-568.84765625,-170.8984375,-601.5625,-328.61328125,-272.4609375
1731718806316.0625,-213.37890625,-165.0390625,-1000,-506.8359375,-483.88671875
1731718806319.9688,-392.08984375,-116.2109375,-901.3671875,-727.05078125,-786.1328125
1731718806323.875,-912.59765625,-220.703125,-600.09765625,-575.68359375,-589.84375
1731718806327.7812,-988.28125,-281.73828125,-711.9140625,-351.07421875,-199.70703125
1731718806331.6875,-772.94921875,-236.81640625,-995.1171875,-371.58203125,-156.73828125
1731718806335.5938,-891.6015625,-247.0703125,-1000,-919.921875,-908.69140625
1731718806339.5,-1000,-319.3359375,-823.2421875,-579.1015625,-394.53125
1731718806343.4062,-1000,-321.77734375,-539.55078125,338.37890625,764.16015625
1731718806347.3125,-710.9375,-235.83984375,-904.296875,-570.80078125,-493.65234375
1731718806351.2188,-606.4453125,-262.20703125,-1000,-955.078125,-979.98046875
1731718806355.125,-854.00390625,-267.578125,-673.33984375,-459.47265625,-420.41015625
1731718806359.0312,-605.46875,-200.68359375,-441.89453125,-752.44140625,-855.95703125
1731718806362.9375,-152.34375,-216.30859375,-807.6171875,-703.61328125,-751.46484375
1731718806366.8438,-115.72265625,-266.11328125,-963.37890625,-308.10546875,-228.02734375
1731718806370.75,-457.03125,-237.3046875,-693.359375,-275.390625,-249.0234375
1731718806374.6562,-729.4921875,-170.41015625,-419.921875,-465.8203125,-501.46484375
1731718806378.5625,-693.359375,-165.52734375,-692.3828125,-511.23046875,-449.21875
1731718806382.4688,-744.140625,-280.76171875,-1000,-384.765625,-208.984375
1731718806386.375,-967.7734375,-301.26953125,-787.109375,139.6484375,455.078125
1731718806390.2812,-1000,-317.3828125,-789.55078125,-662.109375,-585.44921875
1731718806394.1875,-973.14453125,-384.765625,-976.5625,-1000,-1000
1731718806398.0938,-809.5703125,-360.83984375,-999.51171875,-723.6328125,-662.59765625
1731718806402,-662.109375,-279.78515625,-1000,-768.06640625,-739.74609375
1731718806405.9062,-565.91796875,-63.96484375,-746.09375,-996.58203125,-1000
1731718806409.8125,-527.34375,-155.76171875,-611.81640625,-816.40625,-888.18359375
1731718806413.7188,-388.671875,-281.25,-815.4296875,23.4375,262.20703125
1731718806417.625,-162.109375,-154.296875,-876.46484375,67.3828125,235.3515625
1731718806421.5312,-542.48046875,-235.3515625,-712.40234375,-433.10546875,-461.42578125
1731718806425.4375,-792.48046875,-209.47265625,-444.3359375,-552.24609375,-476.07421875
1731718806429.3438,-752.9296875,-181.640625,-642.08984375,254.8828125,492.1875
1731718806433.25,-859.375,-264.16015625,-869.140625,662.109375,696.77734375
1731718806437.1562,-807.6171875,-141.6015625,-983.88671875,-775.390625,-858.88671875
1731718806441.0625,-977.05078125,-207.51953125,-959.9609375,-1000,-1000
1731718806444.9688,-982.91015625,-304.19921875,-915.0390625,-315.4296875,-188.4765625
1731718806448.875,-570.3125,-231.4453125,-996.09375,-550.78125,-527.83203125
1731718806452.7812,-422.8515625,-117.1875,-1000,-972.65625,-1000
1731718806456.6875,-677.24609375,-109.86328125,-772.94921875,-896.484375,-928.22265625
1731718806460.5938,-649.4140625,-269.53125,-741.2109375,-654.296875,-689.453125
1731718806464.5,-170.8984375,-149.90234375,-966.796875,-404.296875,-383.30078125
1731718806468.4062,-288.0859375,-171.38671875,-1000,-325.68359375,-298.828125
1731718806472.3125,-802.24609375,-252.9296875,-728.515625,-376.953125,-288.0859375
1731718806476.2188,-811.5234375,-117.67578125,-431.640625,-175.78125,-12.20703125
1731718806480.125,-473.14453125,-158.69140625,-847.16796875,-448.2421875,-402.34375
1731718806484.0312,-447.265625,-179.19921875,-1000,-950.1953125,-1000
1731718806487.9375,-874.0234375,-229.00390625,-913.0859375,-774.4140625,-758.7890625
1731718806491.8438,-1000,-252.44140625,-531.25,-23.92578125,163.0859375
1731718806495.75,-586.9140625,-134.765625,-798.33984375,-521.484375,-497.0703125
1731718806499.6562,-398.92578125,-215.8203125,-1000,-939.453125,-1000
1731718806503.5625,-623.046875,-163.57421875,-838.37890625,-373.53515625,-330.56640625
1731718806507.4688,-742.67578125,-69.3359375,-465.33203125,-334.9609375,-301.7578125
1731718806511.375,-613.28125,-270.01953125,-777.34375,-790.52734375,-845.703125
1731718806515.2812,-423.33984375,-301.26953125,-1000,-486.328125,-356.4453125
1731718806519.1875,-662.59765625,-265.625,-753.41796875,283.69140625,613.76953125
1731718806523.0938,-1000,-271.97265625,-300.29296875,753.41796875,868.1640625
1731718806527,-807.6171875,-245.1171875,-523.4375,-190.4296875,-249.51171875
1731718806530.9062,-487.3046875,-261.71875,-979.00390625,-668.45703125,-622.0703125
1731718806534.8125,-599.12109375,-220.703125,-941.89453125,-124.0234375,23.92578125
1731718806538.7188,-804.19921875,-172.36328125,-896.484375,-689.94140625,-654.78515625
1731718806542.625,-799.8046875,-224.609375,-875.9765625,-1000,-1000
1731718806546.5312,-472.65625,-170.41015625,-958.0078125,-718.75,-722.16796875
1731718806550.4375,-350.09765625,-140.625,-1000,-415.52734375,-394.53125
1731718806554.3438,-620.1171875,-212.890625,-969.23828125,-858.88671875,-858.88671875
1731718806558.25,-751.46484375,-206.54296875,-775.87890625,-1000,-1000
1731718806562.1562,-693.84765625,-285.15625,-872.0703125,-424.8046875,-299.8046875
1731718806566.0625,-600.5859375,-308.59375,-951.66015625,359.375,577.63671875
1731718806569.9688,-567.3828125,-254.8828125,-965.33203125,-440.91796875,-403.80859375
1731718806573.875,-706.0546875,-223.6328125,-807.6171875,-1000,-1000
1731718806577.7812,-670.41015625,-230.46875,-791.9921875,-690.91796875,-660.15625
1731718806581.6875,-464.84375,-256.34765625,-999.0234375,-288.0859375,-179.6875
1731718806585.5938,-520.99609375,-188.4765625,-967.28515625,-349.12109375,-339.84375
1731718806589.5,-698.73046875,-125.9765625,-790.0390625,-956.54296875,-1000
1731718806593.4062,-807.6171875,-170.41015625,-634.765625,-574.70703125,-513.671875
1731718806597.3125,-787.59765625,-218.26171875,-701.171875,701.66015625,768.06640625
1731718806601.2188,-502.44140625,-177.734375,-989.74609375,-231.93359375,-290.52734375
1731718806605.125,-678.22265625,-183.10546875,-968.75,-1000,-1000
1731718806609.0312,-966.30859375,-249.51171875,-642.578125,-515.625,-338.8671875
1731718806612.9375,-652.83203125,-258.30078125,-842.28515625,-157.71484375,21.97265625
1731718806616.8438,-339.35546875,-210.9375,-1000,-544.43359375,-562.98828125
1731718806620.75,-560.05859375,-198.2421875,-964.35546875,-950.1953125,-1000
1731718806624.6562,-946.2890625,-241.2109375,-523.92578125,-239.74609375,-92.7734375
1731718806628.5625,-702.1484375,-248.046875,-695.80078125,-122.55859375,23.92578125
1731718806632.4688,-281.73828125,-193.359375,-1000,-746.09375,-762.20703125
1731718806636.375,-479.00390625,-159.66796875,-975.5859375,-791.015625,-866.2109375
1731718806640.2812,-839.84375,-152.34375,-678.22265625,-733.3984375,-868.65234375
1731718806644.1875,-761.23046875,-171.38671875,-672.36328125,-576.171875,-638.671875
1731718806648.0938,-450.1953125,-200.1953125,-996.09375,-717.28515625,-743.65234375
1731718806652,-564.94140625,-234.86328125,-1000,-730.46875,-754.8828125
1731718806655.9062,-965.8203125,-225.09765625,-581.0546875,-9.765625,138.671875
1731718806659.8125,-924.8046875,-225.5859375,-497.55859375,-229.4921875,-113.76953125
1731718806663.7188,-482.91015625,-266.6015625,-961.9140625,-791.50390625,-790.0390625
1731718806667.625,-459.9609375,-240.234375,-993.65234375,-444.3359375,-382.32421875
1731718806671.5312,-871.58203125,-248.53515625,-638.671875,22.94921875,183.10546875
1731718806675.4375,-797.36328125,-253.41796875,-646.484375,-812.98828125,-815.4296875
1731718806679.3438,-459.47265625,-230.46875,-951.66015625,-954.58984375,-1000
1731718806683.25,-403.3203125,-211.9140625,-1000,-347.16796875,-285.64453125
1731718806687.1562,-585.44921875,-117.1875,-873.53515625,-537.59765625,-520.01953125
1731718806691.0625,-832.51953125,-187.98828125,-791.015625,-1000,-1000
1731718806694.9688,-695.80078125,-248.046875,-934.08203125,-981.93359375,-984.86328125
1731718806698.875,-523.92578125,-190.4296875,-1000,-135.7421875,38.57421875
1731718806702.7812,-786.1328125,-275.87890625,-956.0546875,-97.16796875,87.40234375
1731718806706.6875,-961.42578125,-222.16796875,-651.85546875,-696.2890625,-676.7578125
1731718806710.5938,-812.5,-208.49609375,-605.46875,-489.74609375,-441.89453125
1731718806714.5,-602.05078125,-264.16015625,-887.20703125,214.35546875,429.6875
1731718806718.4062,-536.1328125,-229.4921875,-966.30859375,-97.65625,-7.32421875
1731718806722.3125,-686.03515625,-240.72265625,-890.13671875,-1000,-1000
1731718806726.2188,-694.82421875,-218.26171875,-757.8125,-894.53125,-871.58203125
1731718806730.125,-529.78515625,-241.69921875,-900.87890625,-135.25390625,20.01953125
1731718806734.0312,-411.1328125,-234.375,-1000,-420.8984375,-367.1875
1731718806737.9375,-599.609375,-166.50390625,-928.7109375,-1000,-1000
1731718806741.8438,-888.671875,-244.140625,-705.56640625,-914.0625,-874.51171875
1731718806745.75,-901.3671875,-307.6171875,-732.91015625,341.796875,477.05078125
1731718806749.6562,-580.56640625,-235.83984375,-945.3125,389.16015625,501.953125
1731718806753.5625,-634.27734375,-223.14453125,-924.31640625,-524.90234375,-438.4765625
1731718806757.4688,-905.2734375,-229.4921875,-538.57421875,-511.71875,-449.70703125
1731718806761.375,-899.4140625,-256.8359375,-439.453125,560.05859375,664.0625
1731718806765.2812,-466.30859375,-275.87890625,-897.4609375,160.64453125,162.59765625
1731718806769.1875,-354.4921875,-239.2578125,-1000,-957.51953125,-1000
1731718806773.0938,-768.06640625,-238.76953125,-789.0625,-831.0546875,-853.515625
1731718806777,-747.55859375,-264.6484375,-735.3515625,-685.05859375,-730.46875
1731718806780.9062,-353.02734375,-220.703125,-969.7265625,-765.625,-816.40625
1731718806784.8125,-392.578125,-211.42578125,-1000,-979.4921875,-1000
1731718806788.7188,-851.07421875,-218.26171875,-774.4140625,-568.84765625,-517.08984375
1731718806792.625,-988.28125,-268.06640625,-462.890625,84.9609375,291.015625
1731718806796.5312,-586.42578125,-270.99609375,-876.953125,-274.4140625,-176.26953125
1731718806800.4375,-412.109375,-217.28515625,-1000,-405.2734375,-268.5546875
1731718806804.3438,-788.57421875,-218.75,-690.4296875,78.61328125,301.26953125
1731718806808.25,-950.1953125,-214.84375,-382.8125,123.046875,259.27734375
1731718806812.1562,-474.12109375,-213.8671875,-858.88671875,-815.91796875,-908.203125
1731718806816.0625,-277.83203125,-223.14453125,-1000,-589.84375,-559.08203125
1731718806819.9688,-619.62890625,-228.02734375,-843.26171875,-157.71484375,3.90625
1731718806823.875,-791.015625,-219.23828125,-778.80859375,-807.6171875,-783.69140625
1731718806827.7812,-565.91796875,-199.21875,-926.7578125,-1000,-1000
1731718806831.6875,-405.76171875,-214.35546875,-997.55859375,-655.2734375,-646.484375
1731718806835.5938,-666.9921875,-212.890625,-893.06640625,-32.2265625,117.1875
1731718806839.5,-832.03125,-184.08203125,-817.87109375,-729.00390625,-710.44921875
1731718806843.4062,-731.93359375,-207.03125,-775.390625,-850.5859375,-846.19140625
1731718806847.3125,-515.13671875,-228.02734375,-948.73046875,-177.734375,49.31640625
1731718806851.2188,-700.68359375,-249.51171875,-755.37109375,718.75,818.359375
1731718806855.125,-808.59375,-183.59375,-573.73046875,30.2734375,-113.28125
1731718806859.0312,-666.015625,-219.7265625,-742.67578125,-1000,-1000
1731718806862.9375,-441.40625,-242.1875,-955.078125,-634.27734375,-610.83984375
1731718806866.8438,-282.2265625,-190.91796875,-1000,-497.55859375,-506.34765625
1731718806870.75,-563.96484375,-226.07421875,-957.03125,-964.84375,-979.4921875
1731718806874.6562,-828.61328125,-215.33203125,-678.22265625,-933.10546875,-944.3359375
1731718806878.5625,-731.4453125,-250,-770.01953125,-338.37890625,-250.48828125
1731718806882.4688,-467.28515625,-254.8828125,-1000,-294.921875,-177.734375
1731718806886.375,-506.34765625,-186.5234375,-1000,-919.921875,-955.56640625
1731718806890.2812,-858.88671875,-212.890625,-713.8671875,-855.46875,-910.15625
1731718806894.1875,-834.47265625,-221.19140625,-597.16796875,-67.3828125,152.83203125
1731718806898.0938,-442.3828125,-221.6796875,-919.43359375,-99.609375,101.5625
1731718806902,-367.67578125,-220.703125,-1000,-893.06640625,-961.9140625
1731718806905.9062,-668.45703125,-189.94140625,-859.86328125,-955.56640625,-956.54296875
1731718806909.8125,-802.24609375,-254.8828125,-636.23046875,-355.46875,-254.8828125
1731718806913.7188,-402.83203125,-253.41796875,-898.92578125,-394.53125,-365.72265625
1731718806917.625,-258.30078125,-223.14453125,-1000,-811.5234375,-863.28125
1731718806921.5312,-668.45703125,-239.2578125,-903.80859375,-840.33203125,-849.12109375
1731718806925.4375,-909.1796875,-268.06640625,-606.93359375,-534.1796875,-519.04296875
1731718806929.3438,-625,-287.109375,-872.55859375,-439.94140625,-350.09765625
1731718806933.25,-490.72265625,-261.23046875,-1000,-321.2890625,-159.1796875
1731718806937.1562,-726.5625,-225.5859375,-833.49609375,-405.76171875,-217.28515625
1731718806941.0625,-1000,-267.08984375,-304.6875,424.8046875,707.03125
1731718806944.9688,-899.4140625,-269.53125,-390.625,866.69921875,908.203125
1731718806948.875,-364.74609375,-235.3515625,-986.81640625,-341.796875,-418.9453125
1731718806952.7812,-467.7734375,-222.65625,-988.76953125,-729.98046875,-827.63671875
1731718806956.6875,-833.49609375,-230.46875,-696.2890625,-727.5390625,-799.8046875
1731718806960.5938,-632.32421875,-243.65234375,-812.5,-1000,-1000
1731718806964.5,-321.77734375,-240.72265625,-1000,-881.8359375,-930.6640625
1731718806968.4062,-523.92578125,-262.20703125,-972.16796875,-499.0234375,-510.7421875
1731718806972.3125,-819.3359375,-243.1640625,-789.55078125,-690.4296875,-691.89453125
1731718806976.2188,-742.67578125,-255.37109375,-745.60546875,-1000,-1000
1731718806980.125,-447.75390625,-263.18359375,-994.62890625,-958.984375,-981.93359375
1731718806984.0312,-575.68359375,-249.0234375,-912.109375,-59.5703125,128.41796875
1731718806987.9375,-978.02734375,-246.09375,-445.80078125,621.09375,751.953125
1731718806991.8438,-882.32421875,-224.12109375,-427.734375,-356.93359375,-470.703125
1731718806995.75,-541.50390625,-243.65234375,-872.55859375,-703.125,-719.23828125
1731718806999.6562,-480.46875,-261.23046875,-1000,-146.484375,-23.4375
1731718807003.5625,-604.98046875,-220.703125,-941.40625,-603.515625,-595.703125
1731718807007.4688,-731.93359375,-218.75,-760.7421875,-1000,-1000
1731718807011.375,-613.28125,-237.79296875,-858.88671875,-827.1484375,-795.41015625
1731718807015.2812,-522.94921875,-256.8359375,-965.33203125,120.1171875,311.03515625
1731718807019.1875,-561.03515625,-248.046875,-972.16796875,-390.625,-349.609375
1731718807023.0938,-711.9140625,-221.19140625,-856.93359375,-1000,-1000
1731718807027,-734.86328125,-242.1875,-771.484375,-816.89453125,-787.59765625
1731718807030.9062,-708.0078125,-273.4375,-807.12890625,498.046875,579.58984375
1731718807034.8125,-622.0703125,-235.3515625,-859.86328125,259.765625,296.875
1731718807038.7188,-654.78515625,-183.10546875,-820.3125,-975.09765625,-1000
1731718807042.625,-753.90625,-196.77734375,-636.23046875,-801.7578125,-803.22265625
1731718807046.5312,-612.3046875,-258.7890625,-849.609375,2.44140625,186.5234375
1731718807050.4375,-408.69140625,-211.9140625,-1000,-222.65625,-70.80078125
1731718807054.3438,-594.23828125,-208.49609375,-976.07421875,-992.1875,-1000
1731718807058.25,-892.08984375,-253.41796875,-678.22265625,-794.921875,-767.578125
1731718807062.1562,-657.71484375,-243.65234375,-790.0390625,-290.52734375,-194.82421875
1731718807066.0625,-363.28125,-265.625,-1000,-614.74609375,-623.53515625
1731718807069.9688,-518.06640625,-215.8203125,-1000,-1000,-1000
1731718807073.875,-907.2265625,-234.86328125,-633.30078125,-543.45703125,-492.67578125
1731718807077.7812,-939.453125,-287.109375,-503.90625,516.6015625,658.203125
1731718807081.6875,-492.67578125,-231.4453125,-945.3125,69.3359375,235.3515625
1731718807085.5938,-461.42578125,-215.8203125,-1000,-817.87109375,-846.19140625
1731718807089.5,-899.4140625,-201.66015625,-575.68359375,-253.90625,-205.56640625
1731718807093.4062,-898.92578125,-231.93359375,-466.30859375,184.5703125,327.1484375
1731718807097.3125,-389.16015625,-257.32421875,-966.796875,-739.2578125,-796.38671875
1731718807101.2188,-347.65625,-218.75,-1000,-898.4375,-1000
1731718807105.125,-887.20703125,-256.8359375,-654.296875,-10.25390625,191.89453125
1731718807109.0312,-885.7421875,-253.90625,-533.69140625,-172.8515625,-52.24609375
1731718807112.9375,-352.5390625,-208.49609375,-948.73046875,-915.52734375,-1000
1731718807116.8438,-305.17578125,-226.07421875,-1000,-689.94140625,-753.90625
1731718807120.75,-665.52734375,-214.35546875,-837.890625,-612.3046875,-688.4765625
1731718807124.6562,-877.44140625,-241.2109375,-599.12109375,-812.5,-932.12890625
1731718807128.5625,-637.6953125,-250.9765625,-814.453125,-628.41796875,-722.16796875
1731718807132.4688,-433.59375,-229.00390625,-1000,-191.40625,-119.140625
1731718807136.375,-815.91796875,-243.1640625,-738.28125,391.11328125,570.3125
1731718807140.2812,-927.24609375,-216.30859375,-599.12109375,-465.33203125,-507.8125
1731718807144.1875,-641.6015625,-239.2578125,-842.28515625,-1000,-1000
1731718807148.0938,-444.82421875,-272.4609375,-1000,-624.0234375,-603.515625
1731718807152,-480.95703125,-236.81640625,-1000,-677.24609375,-695.80078125
1731718807155.9062,-698.73046875,-219.23828125,-905.76171875,-1000,-1000
1731718807159.8125,-695.3125,-228.02734375,-802.24609375,-1000,-1000
1731718807163.7188,-496.58203125,-250.9765625,-953.61328125,-358.3984375,-147.4609375
1731718807167.625,-436.03515625,-239.74609375,-1000,-362.3046875,-204.58984375
1731718807171.5312,-745.60546875,-226.07421875,-838.8671875,-752.9296875,-879.8828125
1731718807175.4375,-902.34375,-259.765625,-616.69921875,-770.99609375,-822.75390625
1731718807179.3438,-759.27734375,-262.6953125,-750.48828125,145.99609375,326.66015625
1731718807183.25,-691.89453125,-282.2265625,-884.27734375,614.2578125,645.99609375
1731718807187.1562,-617.1875,-213.37890625,-979.00390625,-773.4375,-864.74609375
1731718807191.0625,-763.671875,-210.9375,-810.05859375,-1000,-1000
1731718807194.9688,-694.82421875,-276.85546875,-826.66015625,-417.48046875,-345.21484375
1731718807198.875,-359.375,-229.98046875,-1000,-564.453125,-560.05859375
1731718807202.7812,-461.42578125,-225.09765625,-1000,-970.703125,-1000
1731718807206.6875,-770.99609375,-218.75,-803.7109375,-925.78125,-926.7578125
1731718807210.5938,-676.26953125,-226.5625,-711.42578125,-662.109375,-685.546875
1731718807214.5,-383.30078125,-281.25,-975.5859375,-612.79296875,-592.7734375
1731718807218.4062,-503.41796875,-238.28125,-1000,-485.3515625,-389.16015625
1731718807222.3125,-887.6953125,-247.55859375,-662.59765625,-380.37109375,-240.72265625
1731718807226.2188,-970.703125,-294.43359375,-410.64453125,152.34375,451.66015625
1731718807230.125,-523.4375,-256.34765625,-851.07421875,-276.3671875,-134.27734375
1731718807234.0312,-351.5625,-249.0234375,-1000,-965.8203125,-1000
1731718807237.9375,-735.3515625,-221.19140625,-797.36328125,-625.9765625,-695.3125
1731718807241.8438,-953.125,-247.0703125,-453.61328125,-151.85546875,-75.1953125
1731718807245.75,-547.8515625,-271.97265625,-853.02734375,-641.11328125,-645.5078125
1731718807249.6562,-303.22265625,-249.0234375,-1000,-855.46875,-927.734375
1731718807253.5625,-681.15234375,-255.37109375,-853.515625,-487.3046875,-478.515625
1731718807257.4688,-874.51171875,-251.953125,-586.42578125,-594.7265625,-637.20703125
1731718807261.375,-584.9609375,-268.06640625,-828.61328125,-876.46484375,-986.81640625
1731718807265.2812,-423.828125,-284.1796875,-1000,-484.375,-366.2109375
1731718807269.1875,-722.65625,-272.4609375,-795.41015625,225.09765625,520.99609375
1731718807273.0938,-994.140625,-266.6015625,-478.515625,106.93359375,180.17578125
1731718807277,-706.0546875,-260.25390625,-731.93359375,-881.8359375,-1000
1731718807280.9062,-475.5859375,-272.94921875,-994.62890625,-459.47265625,-375.9765625
1731718807284.8125,-613.76953125,-256.34765625,-889.6484375,-8.30078125,166.9921875
1731718807288.7188,-767.08984375,-220.703125,-799.31640625,-771.97265625,-756.8359375
1731718807292.625,-682.6171875,-235.83984375,-782.71484375,-1000,-1000
1731718807296.5312,-441.89453125,-241.69921875,-950.1953125,-646.97265625,-644.53125
1731718807300.4375,-469.7265625,-263.18359375,-1000,-280.76171875,-210.9375
1731718807304.3438,-655.76171875,-231.4453125,-955.56640625,-799.31640625,-815.91796875
1731718807308.25,-724.12109375,-219.23828125,-775.87890625,-1000,-1000
1731718807312.1562,-627.44140625,-265.625,-857.91015625,-374.51171875,-205.078125
1731718807316.0625,-682.12890625,-293.9453125,-850.5859375,642.578125,724.609375
1731718807319.9688,-672.36328125,-240.72265625,-911.62109375,-316.40625,-409.66796875
1731718807323.875,-732.421875,-214.35546875,-848.6328125,-1000,-1000
1731718807327.7812,-690.4296875,-250.9765625,-840.8203125,-680.6640625,-649.90234375
1731718807331.6875,-395.5078125,-247.0703125,-1000,-399.4140625,-338.37890625
1731718807335.5938,-472.16796875,-220.21484375,-999.0234375,-629.8828125,-658.203125
1731718807339.5,-829.58984375,-223.6328125,-743.65234375,-812.01171875,-936.03515625
1731718807343.4062,-837.40234375,-268.06640625,-672.8515625,-574.21875,-580.56640625
1731718807347.3125,-509.765625,-272.94921875,-935.05859375,-246.09375,-108.3984375
1731718807351.2188,-431.640625,-253.90625,-1000,-521.97265625,-464.84375
1731718807355.125,-713.8671875,-231.93359375,-847.65625,-894.53125,-933.59375
1731718807359.0312,-886.23046875,-262.20703125,-579.58984375,-512.6953125,-446.77734375
1731718807362.9375,-646.484375,-292.96875,-812.01171875,-43.9453125,193.359375
1731718807366.8438,-386.71875,-264.16015625,-1000,-493.1640625,-428.7109375
1731718807370.75,-606.4453125,-226.5625,-969.23828125,-967.28515625,-1000
1731718807374.6562,-957.03125,-253.90625,-541.9921875,-235.83984375,-84.9609375
1731718807378.5625,-709.47265625,-261.71875,-712.40234375,-39.0625,129.39453125
1731718807382.4688,-328.125,-249.0234375,-1000,-746.09375,-759.27734375
1731718807386.375,-529.296875,-227.05078125,-960.9375,-762.6953125,-820.80078125
1731718807390.2812,-842.7734375,-217.28515625,-672.36328125,-615.234375,-723.6328125
1731718807394.1875,-724.12109375,-260.25390625,-757.8125,-597.16796875,-611.328125
1731718807398.0938,-416.9921875,-251.953125,-1000,-496.58203125,-395.99609375
1731718807402,-504.39453125,-236.81640625,-997.0703125,-571.2890625,-542.48046875
1731718807405.9062,-943.359375,-248.53515625,-496.09375,195.3125,391.11328125
1731718807409.8125,-869.62890625,-264.16015625,-453.125,3.41796875,124.51171875
1731718807413.7188,-439.94140625,-279.296875,-961.42578125,-667.48046875,-651.85546875
1731718807417.625,-437.98828125,-255.859375,-1000,-521.97265625,-518.06640625
1731718807421.5312,-756.8359375,-220.21484375,-826.66015625,-568.359375,-610.3515625
1731718807425.4375,-778.3203125,-244.140625,-746.09375,-953.61328125,-978.02734375
1731718807429.3438,-448.73046875,-236.328125,-962.890625,-940.4296875,-988.28125
1731718807433.25,-463.8671875,-256.8359375,-994.62890625,-287.59765625,-227.05078125
1731718807437.1562,-773.4375,-247.0703125,-772.4609375,28.3203125,116.2109375
1731718807441.0625,-777.34375,-227.05078125,-713.37890625,-872.55859375,-905.2734375
1731718807444.9688,-536.1328125,-251.953125,-930.17578125,-1000,-1000
1731718807448.875,-502.9296875,-256.8359375,-977.5390625,-112.3046875,0.48828125
1731718807452.7812,-719.7265625,-251.46484375,-815.4296875,-17.578125,145.01953125
1731718807456.6875,-838.8671875,-220.21484375,-574.21875,-539.55078125,-631.34765625
1731718807460.5938,-702.63671875,-254.8828125,-682.12890625,-560.05859375,-577.63671875
1731718807464.5,-591.796875,-300.29296875,-905.2734375,331.0546875,570.3125
1731718807468.4062,-771.97265625,-280.2734375,-738.28125,793.45703125,800.78125
1731718807472.3125,-758.7890625,-212.890625,-761.71875,-693.359375,-803.22265625
1731718807476.2188,-671.875,-235.83984375,-860.83984375,-1000,-1000
1731718807480.125,-472.16796875,-257.8125,-968.75,-416.50390625,-381.34765625
1731718807484.0312,-350.09765625,-239.2578125,-1000,-687.98828125,-736.81640625
1731718807487.9375,-619.140625,-214.35546875,-961.42578125,-1000,-1000
1731718807491.8438,-771.484375,-231.4453125,-786.62109375,-921.38671875,-913.57421875
1731718807495.75,-530.2734375,-247.0703125,-906.73828125,-523.92578125,-520.5078125
1731718807499.6562,-433.10546875,-254.39453125,-1000,-260.25390625,-124.0234375
1731718807503.5625,-681.640625,-238.28125,-893.5546875,-453.61328125,-387.20703125
1731718807507.4688,-902.34375,-238.28125,-565.91796875,-580.078125,-663.0859375
1731718807511.375,-765.625,-278.3203125,-700.68359375,-225.5859375,-97.65625
1731718807515.2812,-409.66796875,-262.20703125,-994.62890625,-438.96484375,-349.12109375
1731718807519.1875,-446.77734375,-218.26171875,-1000,-1000,-1000
1731718807523.0938,-831.54296875,-221.19140625,-741.69921875,-775.390625,-762.20703125
1731718807527,-970.703125,-288.0859375,-475.09765625,416.9921875,563.96484375
1731718807530.9062,-504.8828125,-258.7890625,-896.97265625,-150.390625,-98.6328125
1731718807534.8125,-393.06640625,-238.76953125,-1000,-1000,-1000
1731718807538.7188,-822.265625,-214.84375,-733.3984375,-588.37890625,-594.23828125
1731718807542.625,-887.6953125,-268.5546875,-605.95703125,-401.85546875,-368.1640625
1731718807546.5312,-486.81640625,-272.4609375,-957.03125,-380.37109375,-277.83203125
1731718807550.4375,-412.59765625,-245.1171875,-1000,-259.27734375,-54.6875
1731718807554.3438,-794.43359375,-254.39453125,-728.515625,-150.390625,13.671875
1731718807558.25,-803.7109375,-221.19140625,-587.890625,-554.6875,-569.3359375
1731718807562.1562,-450.68359375,-235.83984375,-926.7578125,-804.6875,-924.31640625
1731718807566.0625,-342.28515625,-237.3046875,-1000,-625.48828125,-638.671875
1731718807569.9688,-786.62109375,-262.20703125,-727.5390625,135.25390625,454.1015625
1731718807573.875,-994.140625,-250,-436.03515625,141.6015625,269.04296875
1731718807577.7812,-573.73046875,-233.88671875,-839.84375,-951.66015625,-1000
1731718807581.6875,-362.3046875,-266.11328125,-1000,-768.06640625,-802.24609375
1731718807585.5938,-518.5546875,-243.65234375,-982.421875,-533.69140625,-568.84765625
1731718807589.5,-718.75,-218.26171875,-819.82421875,-916.50390625,-934.5703125
1731718807593.4062,-709.47265625,-283.69140625,-728.515625,-803.7109375,-782.2265625
1731718807597.3125,-501.953125,-299.8046875,-945.80078125,-181.640625,24.4140625
1731718807601.2188,-704.58984375,-296.875,-748.046875,658.203125,773.92578125
1731718807605.125,-807.12890625,-227.5390625,-607.91015625,-206.0546875,-353.02734375
1731718807609.0312,-666.9921875,-240.234375,-784.66796875,-1000,-1000
1731718807612.9375,-484.375,-279.78515625,-967.28515625,-615.234375,-588.8671875
1731718807616.8438,-403.80859375,-251.953125,-1000,-478.515625,-465.33203125
1731718807620.75,-640.13671875,-241.69921875,-979.00390625,-958.49609375,-965.8203125
1731718807624.6562,-809.5703125,-240.72265625,-784.1796875,-1000,-1000
1731718807628.5625,-719.23828125,-281.25,-833.0078125,-400.390625,-216.796875
1731718807632.4688,-482.91015625,-272.4609375,-1000,-208.0078125,-3.41796875
1731718807636.375,-543.45703125,-241.69921875,-1000,-880.37109375,-933.59375
1731718807640.2812,-820.3125,-241.2109375,-698.2421875,-907.71484375,-980.46875
1731718807644.1875,-825.1953125,-276.85546875,-541.50390625,98.6328125,245.1171875
1731718807648.0938,-559.08203125,-285.64453125,-830.078125,489.2578125,550.29296875
1731718807652,-401.3671875,-233.88671875,-1000,-668.45703125,-771.484375
1731718807655.9062,-678.7109375,-212.890625,-840.8203125,-1000,-1000
1731718807659.8125,-787.59765625,-278.80859375,-730.46875,-646.97265625,-650.390625
1731718807663.7188,-453.125,-287.109375,-952.63671875,-659.1796875,-701.171875
1731718807667.625,-349.12109375,-228.02734375,-1000,-852.05078125,-916.015625
1731718807671.5312,-704.1015625,-215.8203125,-922.36328125,-924.31640625,-949.21875
1731718807675.4375,-855.46875,-251.46484375,-709.9609375,-760.7421875,-814.94140625
1731718807679.3438,-464.35546875,-230.95703125,-904.78515625,-679.19921875,-730.95703125
1731718807683.25,-389.6484375,-253.41796875,-1000,-637.6953125,-639.6484375
1731718807687.1562,-768.06640625,-283.203125,-841.30859375,-426.7578125,-340.33203125
1731718807691.0625,-997.55859375,-263.671875,-300.29296875,398.4375,615.72265625
1731718807694.9688,-678.7109375,-276.3671875,-632.32421875,104.98046875,167.48046875
1731718807698.875,-292.48046875,-258.30078125,-1000,-732.91015625,-771.97265625
1731718807702.7812,-559.5703125,-245.1171875,-918.9453125,-583.984375,-629.39453125
1731718807706.6875,-905.76171875,-277.83203125,-632.32421875,-558.10546875,-599.12109375
1731718807710.5938,-662.59765625,-272.94921875,-802.734375,-937.5,-995.1171875
1731718807714.5,-388.671875,-300.78125,-1000,-846.19140625,-889.6484375
1731718807718.4062,-525.390625,-257.8125,-966.796875,-506.8359375,-515.625
1731718807722.3125,-794.921875,-238.76953125,-775.87890625,-754.8828125,-774.90234375
1731718807726.2188,-724.609375,-295.41015625,-783.203125,-1000,-1000
1731718807730.125,-419.43359375,-285.15625,-994.140625,-780.2734375,-784.66796875
1731718807734.0312,-565.4296875,-304.6875,-930.17578125,-51.26953125,205.56640625
1731718807737.9375,-856.93359375,-283.203125,-667.96875,-120.60546875,103.515625
1731718807741.8438,-838.37890625,-275.390625,-545.41015625,-717.7734375,-784.1796875
1731718807745.75,-597.65625,-316.40625,-847.16796875,-522.4609375,-486.328125
1731718807749.6562,-550.78125,-326.66015625,-986.81640625,-47.36328125,171.38671875
1731718807753.5625,-730.95703125,-305.17578125,-910.15625,-574.70703125,-515.13671875
1731718807757.4688,-792.96875,-291.015625,-727.5390625,-1000,-1000
1731718807761.375,-611.81640625,-298.828125,-844.23828125,-759.765625,-736.81640625
1731718807765.2812,-545.8984375,-324.21875,-935.546875,233.3984375,422.8515625
1731718807769.1875,-556.15234375,-262.6953125,-913.0859375,-270.5078125,-220.21484375
1731718807773.0938,-725.5859375,-250,-732.421875,-1000,-1000
1731718807777,-760.7421875,-319.3359375,-695.3125,-491.2109375,-497.0703125
1731718807780.9062,-715.8203125,-343.26171875,-769.04296875,604.4921875,682.6171875
1731718807784.8125,-672.8515625,-316.89453125,-800.29296875,252.44140625,290.0390625
1731718807788.7188,-694.3359375,-255.37109375,-804.19921875,-936.5234375,-1000
1731718807792.625,-797.8515625,-284.66796875,-688.96484375,-794.43359375,-771.97265625
1731718807796.5312,-578.61328125,-303.7109375,-866.2109375,-35.64453125,167.48046875
1731718807800.4375,-406.73828125,-263.671875,-1000,-232.91015625,-102.5390625
1731718807804.3438,-608.88671875,-237.3046875,-897.4609375,-887.20703125,-934.5703125
1731718807808.25,-838.37890625,-285.15625,-650.390625,-779.78515625,-770.5078125
1731718807812.1562,-858.3984375,-332.03125,-573.73046875,708.984375,780.76171875
1731718807816.0625,-547.36328125,-302.24609375,-870.1171875,363.76953125,331.54296875
1731718807819.9688,-521.97265625,-245.60546875,-1000,-984.86328125,-1000
1731718807823.875,-833.49609375,-239.2578125,-605.95703125,-683.59375,-641.11328125
1731718807827.7812,-721.19140625,-272.4609375,-633.7890625,-164.0625,-30.2734375
1731718807831.6875,-426.26953125,-288.0859375,-1000,-256.8359375,-132.32421875
1731718807835.5938,-499.51171875,-272.4609375,-1000,-773.92578125,-828.125
1731718807839.5,-892.08984375,-258.7890625,-599.609375,-364.74609375,-330.078125
1731718807843.4062,-869.140625,-279.78515625,-537.59765625,25.87890625,187.98828125
1731718807847.3125,-351.5625,-267.578125,-995.60546875,-788.0859375,-820.3125
1731718807851.2188,-349.12109375,-222.16796875,-1000,-843.26171875,-914.0625
1731718807855.125,-807.6171875,-220.21484375,-694.82421875,-425.78125,-461.42578125
1731718807859.0312,-842.28515625,-265.13671875,-594.7265625,-586.42578125,-630.37109375
1731718807862.9375,-427.24609375,-281.25,-941.89453125,-854.4921875,-927.24609375
1731718807866.8438,-357.421875,-263.671875,-1000,-670.8984375,-703.125
1731718807870.75,-762.20703125,-254.8828125,-766.6015625,-313.96484375,-249.51171875
1731718807874.6562,-853.515625,-261.23046875,-566.89453125,-495.1171875,-483.88671875
1731718807878.5625,-544.43359375,-260.25390625,-846.6796875,-546.875,-502.9296875
1731718807882.4688,-437.98828125,-275.390625,-1000,-204.58984375,-92.28515625
1731718807886.375,-810.546875,-275.390625,-710.44921875,393.06640625,526.85546875
1731718807890.2812,-860.83984375,-253.90625,-673.828125,-538.0859375,-546.38671875
1731718807894.1875,-557.12890625,-266.6015625,-916.9921875,-1000,-1000
1731718807898.0938,-414.55078125,-279.78515625,-996.58203125,-503.41796875,-466.796875
1731718807902,-524.90234375,-250,-972.65625,-369.140625,-316.89453125
1731718807905.9062,-685.546875,-216.796875,-864.74609375,-961.42578125,-966.30859375
1731718807909.8125,-630.859375,-249.51171875,-846.19140625,-1000,-1000
1731718807913.7188,-465.8203125,-297.36328125,-990.72265625,-412.109375,-314.94140625
1731718807917.625,-501.953125,-284.66796875,-989.2578125,-246.58203125,-72.265625
1731718807921.5312,-766.6015625,-260.25390625,-742.1875,-592.7734375,-548.828125
1731718807925.4375,-802.24609375,-277.83203125,-594.23828125,-696.2890625,-662.109375
1731718807929.3438,-664.0625,-305.6640625,-793.45703125,92.7734375,293.45703125
1731718807933.25,-717.28515625,-313.4765625,-762.6953125,810.546875,858.3984375
1731718807937.1562,-629.39453125,-233.3984375,-855.46875,-564.453125,-695.80078125
1731718807941.0625,-708.984375,-228.515625,-775.390625,-1000,-1000
1731718807944.9688,-679.19921875,-298.828125,-828.61328125,-440.91796875,-371.09375
1731718807948.875,-386.23046875,-282.71484375,-1000,-646.484375,-657.71484375
1731718807952.7812,-465.8203125,-225.5859375,-1000,-1000,-1000
1731718807956.6875,-775.87890625,-235.3515625,-790.0390625,-910.64453125,-895.5078125
1731718807960.5938,-707.51953125,-275.390625,-749.51171875,-550.29296875,-542.48046875
1731718807964.5,-365.72265625,-270.5078125,-1000,-599.12109375,-585.9375
1731718807968.4062,-518.06640625,-263.18359375,-987.79296875,-563.96484375,-479.4921875
1731718807972.3125,-895.5078125,-265.13671875,-649.90234375,-447.75390625,-428.22265625
1731718807976.2188,-883.30078125,-289.0625,-512.20703125,-237.3046875,-162.109375
1731718807980.125,-455.078125,-286.1328125,-905.76171875,-469.23828125,-384.27734375
1731718807984.0312,-390.625,-266.11328125,-1000,-757.32421875,-793.45703125
1731718807987.9375,-814.453125,-263.671875,-741.69921875,-484.86328125,-515.13671875
1731718807991.8438,-942.87109375,-279.296875,-439.94140625,-94.7265625,6.34765625
1731718807995.75,-502.44140625,-281.73828125,-868.1640625,-602.05078125,-582.03125
1731718807999.6562,-290.0390625,-271.97265625,-1000,-868.65234375,-936.03515625
1731718808003.5625,-659.1796875,-258.30078125,-849.12109375,-566.89453125,-615.72265625
1731718808007.4688,-877.44140625,-277.34375,-617.1875,-763.671875,-797.36328125
1731718808011.375,-600.5859375,-296.875,-854.98046875,-932.12890625,-1000
1731718808015.2812,-411.1328125,-297.36328125,-1000,-475.09765625,-411.1328125
1731718808019.1875,-720.21484375,-288.0859375,-755.37109375,143.5546875,442.87109375
1731718808023.0938,-987.3046875,-290.0390625,-478.515625,-21.97265625,106.4453125
1731718808027,-686.03515625,-303.7109375,-783.203125,-967.28515625,-1000
1731718808030.9062,-414.0625,-312.98828125,-1000,-722.65625,-677.24609375
1731718808034.8125,-686.5234375,-314.94140625,-815.4296875,152.34375,466.796875
1731718808038.7188,-867.67578125,-274.90234375,-671.38671875,-370.60546875,-301.7578125
1731718808042.625,-673.828125,-274.4140625,-758.7890625,-1000,-1000
1731718808046.5312,-432.12890625,-301.7578125,-974.12109375,-819.82421875,-771.484375
1731718808050.4375,-643.5546875,-307.12890625,-809.08203125,407.2265625,595.703125
1731718808054.3438,-888.18359375,-293.45703125,-621.09375,105.95703125,86.42578125
1731718808058.25,-761.71875,-288.0859375,-694.3359375,-1000,-1000
1731718808062.1562,-577.1484375,-320.3125,-891.6015625,-538.57421875,-352.05078125
1731718808066.0625,-504.39453125,-325.1953125,-948.73046875,-27.83203125,261.23046875
1731718808069.9688,-610.3515625,-281.25,-908.69140625,-681.640625,-649.4140625
1731718808073.875,-752.44140625,-281.73828125,-759.765625,-1000,-1000
1731718808077.7812,-644.04296875,-321.77734375,-827.63671875,-715.8203125,-666.015625
1731718808081.6875,-417.96875,-323.2421875,-1000,-342.7734375,-243.65234375
1731718808085.5938,-520.5078125,-284.66796875,-977.5390625,-792.48046875,-813.96484375
1731718808089.5,-855.95703125,-284.1796875,-683.10546875,-970.21484375,-1000
1731718808093.4062,-864.2578125,-330.078125,-588.37890625,-520.5078125,-444.82421875
1731718808097.3125,-512.6953125,-330.078125,-925.78125,-375.9765625,-263.18359375
1731718808101.2188,-429.6875,-285.64453125,-1000,-813.4765625,-840.8203125
1731718808105.125,-730.95703125,-270.01953125,-828.125,-1000,-1000
1731718808109.0312,-921.875,-318.359375,-521.484375,-474.12109375,-303.7109375
1731718808112.9375,-675.78125,-346.6796875,-781.73828125,-36.1328125,244.140625
1731718808116.8438,-437.98828125,-312.5,-1000,-572.265625,-458.984375
1731718808120.75,-675.78125,-283.69140625,-944.82421875,-998.53515625,-1000
1731718808124.6562,-965.33203125,-323.73046875,-508.30078125,-379.8828125,-241.69921875
1731718808128.5625,-675.29296875,-338.37890625,-751.46484375,-330.078125,-225.09765625
1731718808132.4688,-368.65234375,-309.5703125,-1000,-863.76953125,-895.01953125
1731718808136.375,-626.953125,-291.9921875,-961.9140625,-891.6015625,-902.34375
1731718808140.2812,-963.37890625,-318.359375,-500.9765625,-196.77734375,-37.109375
1731718808144.1875,-764.6484375,-335.44921875,-623.046875,-286.1328125,-171.38671875
1731718808148.0938,-470.703125,-318.84765625,-1000,-577.1484375,-522.4609375
1731718808152,-596.6796875,-294.921875,-921.875,-472.65625,-458.0078125
1731718808155.9062,-954.1015625,-303.22265625,-419.921875,166.015625,386.23046875
1731718808159.8125,-896.484375,-329.1015625,-426.26953125,16.11328125,219.7265625
1731718808163.7188,-473.6328125,-332.51953125,-958.984375,-715.33203125,-714.35546875
1731718808167.625,-488.76953125,-313.96484375,-1000,-711.9140625,-705.078125
1731718808171.5312,-952.1484375,-326.66015625,-449.21875,358.3984375,625.9765625
1731718808175.4375,-989.2578125,-343.75,-199.21875,621.09375,811.5234375
1731718808179.3438,-460.44921875,-317.3828125,-890.625,-720.703125,-806.15234375
1731718808183.25,-444.3359375,-314.94140625,-1000,-559.5703125,-514.16015625
1731718808187.1562,-918.9453125,-311.5234375,-580.078125,262.20703125,488.28125
1731718808191.0625,-854.00390625,-304.19921875,-580.56640625,-763.671875,-744.140625
1731718808194.9688,-564.94140625,-331.0546875,-885.25390625,-981.93359375,-955.078125
1731718808198.875,-464.35546875,-319.82421875,-947.265625,-319.3359375,-203.61328125
1731718808202.7812,-680.17578125,-293.9453125,-761.71875,-496.58203125,-498.53515625
1731718808206.6875,-886.23046875,-301.26953125,-535.15625,-830.56640625,-944.82421875
1731718808210.5938,-729.00390625,-328.125,-646.484375,-708.0078125,-660.15625
1731718808214.5,-579.58984375,-355.95703125,-842.28515625,9.765625,295.8984375
1731718808218.4062,-614.74609375,-333.49609375,-870.1171875,-247.55859375,-152.34375
1731718808222.3125,-749.0234375,-301.26953125,-767.08984375,-1000,-1000
1731718808226.2188,-717.7734375,-319.3359375,-747.55859375,-1000,-973.6328125
1731718808230.125,-671.875,-361.81640625,-836.42578125,52.734375,318.84765625
1731718808234.0312,-606.93359375,-341.796875,-903.80859375,41.9921875,120.1171875
1731718808237.9375,-654.78515625,-293.45703125,-910.15625,-1000,-1000
1731718808241.8438,-813.4765625,-316.89453125,-662.109375,-907.71484375,-874.0234375
1731718808245.75,-607.91015625,-334.47265625,-807.12890625,-344.23828125,-246.09375
1731718808249.6562,-479.00390625,-329.58984375,-960.44921875,-323.2421875,-173.828125
1731718808253.5625,-698.2421875,-309.5703125,-788.0859375,-666.9921875,-703.61328125
1731718808257.4688,-899.90234375,-317.3828125,-520.01953125,-753.90625,-868.65234375
1731718808261.375,-886.23046875,-370.1171875,-541.9921875,367.67578125,531.73828125
1731718808265.2812,-536.62109375,-366.69921875,-920.41015625,105.95703125,206.0546875
1731718808269.1875,-462.40234375,-308.10546875,-1000,-1000,-1000
1731718808273.0938,-785.64453125,-299.8046875,-679.19921875,-878.90625,-870.60546875
1731718808277,-713.37890625,-333.984375,-649.4140625,-560.05859375,-549.8046875
1731718808280.9062,-312.98828125,-309.5703125,-989.74609375,-760.25390625,-792.96875
1731718808284.8125,-374.51171875,-286.1328125,-1000,-951.66015625,-985.83984375
1731718808288.7188,-811.03515625,-297.8515625,-762.6953125,-858.88671875,-854.98046875
1731718808292.625,-807.6171875,-314.453125,-673.33984375,-875.48828125,-888.18359375
1731718808296.5312,-506.8359375,-330.56640625,-967.7734375,-590.33203125,-526.3671875
1731718808300.4375,-508.30078125,-317.3828125,-1000,-399.4140625,-267.578125
1731718808304.3438,-864.74609375,-308.10546875,-650.390625,-218.26171875,-22.94921875
1731718808308.25,-906.25,-319.3359375,-494.140625,-386.71875,-295.8984375
1731718808312.1562,-456.0546875,-312.01171875,-916.50390625,-942.87109375,-1000
1731718808316.0625,-324.70703125,-305.6640625,-1000,-774.4140625,-787.59765625
1731718808319.9688,-729.98046875,-301.26953125,-775.390625,-245.1171875,-174.8046875
1731718808323.875,-884.765625,-302.24609375,-568.84765625,-607.421875,-630.37109375
1731718808327.7812,-567.3828125,-312.01171875,-869.140625,-1000,-1000
1731718808331.6875,-409.1796875,-327.63671875,-1000,-765.625,-735.83984375
1731718808335.5938,-799.8046875,-338.37890625,-733.88671875,223.14453125,485.3515625
1731718808339.5,-968.26171875,-308.59375,-510.7421875,-226.07421875,-214.35546875
1731718808343.4062,-746.09375,-324.21875,-677.24609375,-862.3046875,-954.1015625
1731718808347.3125,-577.1484375,-349.609375,-899.90234375,-219.7265625,26.85546875
1731718808351.2188,-739.74609375,-337.890625,-729.4921875,438.4765625,642.08984375
1731718808355.125,-811.5234375,-299.31640625,-647.94921875,-467.7734375,-514.6484375
1731718808359.0312,-661.62109375,-309.5703125,-748.53515625,-1000,-1000
1731718808362.9375,-500,-340.8203125,-932.6171875,-606.93359375,-535.15625
1731718808366.8438,-484.86328125,-331.54296875,-1000,-322.75390625,-192.3828125
1731718808370.75,-653.3203125,-296.38671875,-912.109375,-903.3203125,-889.16015625
1731718808374.6562,-757.32421875,-301.26953125,-704.58984375,-1000,-1000
1731718808378.5625,-647.4609375,-342.7734375,-817.3828125,-537.59765625,-371.09375
1731718808382.4688,-478.515625,-338.8671875,-1000,-447.265625,-268.5546875
1731718808386.375,-634.27734375,-312.5,-981.93359375,-932.12890625,-959.9609375
1731718808390.2812,-919.43359375,-329.58984375,-683.59375,-978.515625,-987.3046875
1731718808394.1875,-895.99609375,-364.74609375,-568.359375,-58.59375,191.89453125
1731718808398.0938,-699.70703125,-361.81640625,-720.21484375,697.75390625,786.62109375
1731718808402,-505.859375,-304.19921875,-975.5859375,-560.546875,-662.109375
1731718808405.9062,-740.72265625,-288.57421875,-760.7421875,-1000,-1000
1731718808409.8125,-769.04296875,-320.80078125,-612.3046875,-532.2265625,-525.87890625
1731718808413.7188,-379.39453125,-323.2421875,-943.84765625,-628.41796875,-641.6015625
1731718808417.625,-370.60546875,-315.91796875,-1000,-901.85546875,-947.265625
1731718808421.5312,-704.1015625,-278.80859375,-869.140625,-940.4296875,-950.68359375
1731718808425.4375,-833.0078125,-305.17578125,-636.23046875,-747.0703125,-767.08984375
1731718808429.3438,-496.09375,-340.8203125,-904.296875,-749.51171875,-777.83203125
1731718808433.25,-354.4921875,-307.6171875,-1000,-751.46484375,-777.34375
1731718808437.1562,-720.703125,-293.45703125,-815.91796875,-534.66796875,-493.1640625
1731718808441.0625,-988.28125,-331.54296875,-470.703125,-260.25390625,-129.39453125
1731718808444.9688,-715.33203125,-338.8671875,-736.328125,-249.51171875,-121.09375
1731718808448.875,-347.65625,-303.7109375,-1000,-580.56640625,-535.15625
1731718808452.7812,-549.31640625,-285.64453125,-943.359375,-628.41796875,-653.80859375
1731718808456.6875,-984.86328125,-323.2421875,-369.62890625,384.765625,592.7734375
1731718808460.5938,-740.234375,-330.56640625,-576.66015625,29.296875,108.3984375
1731718808464.5,-288.57421875,-308.10546875,-1000,-758.7890625,-814.94140625
1731718808468.4062,-460.44921875,-294.43359375,-975.5859375,-567.3828125,-612.79296875
1731718808472.3125,-776.3671875,-279.296875,-761.23046875,-802.24609375,-833.984375
1731718808476.2188,-676.26953125,-301.7578125,-750.48828125,-1000,-1000
1731718808480.125,-397.4609375,-320.3125,-992.67578125,-844.7265625,-876.46484375
1731718808484.0312,-526.85546875,-312.98828125,-959.47265625,-233.3984375,-60.546875
1731718808487.9375,-840.8203125,-280.76171875,-697.265625,-314.94140625,-197.75390625
1731718808491.8438,-803.22265625,-284.1796875,-591.796875,-844.7265625,-950.68359375
1731718808495.75,-505.859375,-295.8984375,-907.2265625,-572.265625,-505.37109375
1731718808499.6562,-560.05859375,-308.59375,-896.484375,388.18359375,625.9765625
1731718808503.5625,-858.88671875,-298.828125,-603.02734375,481.93359375,461.42578125
1731718808507.4688,-762.20703125,-274.90234375,-665.52734375,-886.71875,-980.46875
1731718808511.375,-530.76171875,-301.26953125,-926.26953125,-924.31640625,-907.71484375
1731718808515.2812,-389.16015625,-303.22265625,-1000,-334.47265625,-307.6171875
1731718808519.1875,-489.74609375,-261.71875,-994.140625,-749.0234375,-780.2734375
1731718808523.0938,-717.7734375,-257.8125,-851.07421875,-1000,-1000
1731718808527,-628.90625,-286.62109375,-876.953125,-833.0078125,-841.796875
1731718808530.9062,-456.54296875,-317.3828125,-1000,-162.59765625,-2.9296875
1731718808534.8125,-535.64453125,-294.921875,-952.1484375,-156.73828125,42.96875
1731718808538.7188,-740.72265625,-255.37109375,-758.7890625,-777.34375,-848.14453125
1731718808542.625,-735.3515625,-291.015625,-704.58984375,-769.04296875,-803.22265625
1731718808546.5312,-457.51953125,-312.5,-928.7109375,-298.828125,-174.31640625
1731718808550.4375,-388.18359375,-282.2265625,-1000,-429.19921875,-396.484375
1731718808554.3438,-675.29296875,-258.30078125,-845.21484375,-758.7890625,-831.0546875
1731718808558.25,-864.74609375,-290.52734375,-621.09375,-583.0078125,-627.44140625
1731718808562.1562,-734.375,-333.984375,-720.703125,426.26953125,484.375
1731718808566.0625,-372.0703125,-308.10546875,-1000,-213.8671875,-207.51953125
1731718808569.9688,-495.60546875,-261.23046875,-1000,-1000,-1000
1731718808573.875,-870.1171875,-278.3203125,-618.65234375,-594.7265625,-583.0078125
1731718808577.7812,-762.20703125,-318.359375,-640.625,76.171875,332.51953125
1731718808581.6875,-396.97265625,-308.10546875,-1000,-56.640625,165.52734375
1731718808585.5938,-440.4296875,-262.20703125,-1000,-776.3671875,-845.21484375
1731718808589.5,-890.625,-265.625,-601.5625,-303.7109375,-288.0859375
1731718808593.4062,-897.94921875,-296.875,-461.9140625,489.74609375,594.7265625
1731718808597.3125,-321.77734375,-280.2734375,-960.9375,-476.07421875,-503.90625
1731718808601.2188,-328.61328125,-267.08984375,-1000,-828.61328125,-921.875
1731718808605.125,-736.81640625,-260.25390625,-791.015625,-718.26171875,-858.88671875
1731718808609.0312,-738.28125,-283.203125,-735.83984375,-860.3515625,-878.41796875
1731718808612.9375,-459.47265625,-309.08203125,-963.37890625,-616.2109375,-584.47265625
1731718808616.8438,-408.69140625,-291.9921875,-1000,-479.00390625,-450.68359375
1731718808620.75,-756.34765625,-264.16015625,-801.7578125,-393.06640625,-379.8828125
1731718808624.6562,-854.98046875,-268.5546875,-606.4453125,-558.10546875,-606.93359375
1731718808628.5625,-536.1328125,-290.0390625,-868.65234375,-409.1796875,-342.28515625
1731718808632.4688,-394.04296875,-288.57421875,-1000,-173.828125,-106.4453125
1731718808636.375,-583.0078125,-252.9296875,-923.33984375,-368.1640625,-381.34765625
1731718808640.2812,-686.5234375,-227.5390625,-806.15234375,-894.04296875,-905.76171875
1731718808644.1875,-485.83984375,-249.51171875,-926.26953125,-1000,-1000
1731718808648.0938,-385.7421875,-293.45703125,-1000,-438.4765625,-416.50390625
1731718808652,-781.25,-298.828125,-710.44921875,711.42578125,775.87890625
1731718808655.9062,-864.2578125,-261.23046875,-615.72265625,-165.0390625,-304.6875
1731718808659.8125,-597.65625,-275.390625,-860.83984375,-1000,-1000
1731718808663.7188,-401.3671875,-300.78125,-1000,-465.33203125,-423.33984375
1731718808667.625,-429.19921875,-279.78515625,-1000,-365.72265625,-358.88671875
1731718808671.5312,-739.74609375,-251.46484375,-754.8828125,-645.01953125,-788.0859375
1731718808675.4375,-810.546875,-281.73828125,-585.44921875,-626.953125,-711.42578125
1731718808679.3438,-576.171875,-313.4765625,-841.796875,43.45703125,284.1796875
1731718808683.25,-404.296875,-286.62109375,-996.58203125,-116.69921875,1.46484375
1731718808687.1562,-546.38671875,-248.53515625,-988.76953125,-992.67578125,-1000
1731718808691.0625,-758.7890625,-269.53125,-802.734375,-1000,-1000
1731718808694.9688,-715.8203125,-315.91796875,-774.90234375,-31.73828125,193.359375
1731718808698.875,-465.8203125,-315.91796875,-963.8671875,-17.578125,102.05078125
1731718808702.7812,-477.5390625,-267.578125,-1000,-1000,-1000
1731718808706.6875,-753.90625,-265.13671875,-770.01953125,-932.6171875,-912.109375
1731718808710.5938,-797.36328125,-320.80078125,-632.32421875,27.83203125,251.46484375
1731718808714.5,-429.19921875,-327.63671875,-943.359375,-194.82421875,-20.5078125
1731718808718.4062,-460.44921875,-291.50390625,-1000,-677.734375,-641.6015625
1731718808722.3125,-873.046875,-279.78515625,-618.65234375,-372.55859375,-403.3203125
1731718808726.2188,-929.19921875,-318.84765625,-438.96484375,279.296875,442.87109375
1731718808730.125,-461.9140625,-320.80078125,-880.37109375,-185.05859375,-72.75390625
1731718808734.0312,-299.31640625,-280.76171875,-1000,-991.2109375,-1000
1731718808737.9375,-708.0078125,-263.671875,-829.1015625,-775.390625,-783.69140625
1731718808741.8438,-921.38671875,-301.26953125,-481.93359375,-120.1171875,-8.7890625
1731718808745.75,-511.23046875,-322.75390625,-851.07421875,-566.40625,-549.31640625
1731718808749.6562,-316.89453125,-301.7578125,-1000,-951.66015625,-1000
1731718808753.5625,-704.1015625,-294.43359375,-879.39453125,-656.73828125,-722.65625
1731718808757.4688,-866.2109375,-296.875,-630.859375,-691.40625,-745.60546875
1731718808761.375,-556.640625,-295.41015625,-851.5625,-853.02734375,-955.56640625
1731718808765.2812,-405.76171875,-327.1484375,-1000,-582.03125,-561.5234375
1731718808769.1875,-710.44921875,-302.734375,-785.15625,38.57421875,352.5390625
1731718808773.0938,-977.05078125,-283.69140625,-414.0625,180.6640625,332.51953125
1731718808777,-623.046875,-303.7109375,-802.734375,-836.42578125,-971.6796875
1731718808780.9062,-335.44921875,-307.6171875,-1000,-801.7578125,-816.40625
1731718808784.8125,-568.359375,-301.7578125,-885.7421875,-224.609375,-98.14453125
1731718808788.7188,-765.13671875,-270.5078125,-781.73828125,-738.28125,-709.47265625
1731718808792.625,-630.37109375,-272.4609375,-824.21875,-1000,-1000
1731718808796.5312,-432.12890625,-320.3125,-972.65625,-697.265625,-679.19921875
1731718808800.4375,-544.921875,-316.40625,-969.23828125,-108.3984375,5.37109375
1731718808804.3438,-718.75,-271.484375,-914.0625,-718.26171875,-720.21484375
1731718808808.25,-727.05078125,-277.83203125,-795.41015625,-1000,-1000
1731718808812.1562,-584.47265625,-320.3125,-920.8984375,-422.36328125,-271.97265625
1731718808816.0625,-695.3125,-348.6328125,-807.6171875,711.9140625,823.73046875
1731718808819.9688,-781.73828125,-301.26953125,-690.4296875,34.1796875,-83.984375
1731718808823.875,-747.0703125,-276.3671875,-706.54296875,-1000,-1000
1731718808827.7812,-593.75,-305.17578125,-870.60546875,-723.6328125,-650.390625
1731718808831.6875,-391.6015625,-322.75390625,-1000,-484.375,-416.9921875
1731718808835.5938,-521.97265625,-297.36328125,-1000,-896.484375,-914.55078125
1731718808839.5,-779.296875,-269.04296875,-771.484375,-1000,-1000
1731718808843.4062,-793.45703125,-320.80078125,-680.17578125,-508.7890625,-427.24609375
1731718808847.3125,-533.69140625,-350.5859375,-941.40625,-190.91796875,-13.18359375
1731718808851.2188,-423.33984375,-281.25,-1000,-739.2578125,-741.2109375
1731718808855.125,-708.0078125,-263.18359375,-895.01953125,-1000,-1000
1731718808859.0312,-831.54296875,-315.91796875,-687.01171875,-443.359375,-328.61328125
1731718808862.9375,-589.84375,-339.84375,-864.2578125,-10.7421875,250.9765625
1731718808866.8438,-432.12890625,-311.03515625,-1000,-522.4609375,-408.69140625
1731718808870.75,-659.1796875,-270.99609375,-935.05859375,-963.8671875,-984.86328125
1731718808874.6562,-910.64453125,-308.10546875,-594.23828125,-488.76953125,-420.41015625
1731718808878.5625,-586.42578125,-322.265625,-826.66015625,-407.2265625,-359.86328125
1731718808882.4688,-338.37890625,-310.546875,-1000,-773.92578125,-802.24609375
1731718808886.375,-591.30859375,-289.0625,-973.6328125,-911.1328125,-958.984375
1731718808890.2812,-964.84375,-299.31640625,-475.5859375,-43.45703125,105.95703125
1731718808894.1875,-756.34765625,-318.84765625,-593.75,82.51953125,211.42578125
1731718808898.0938,-345.21484375,-315.4296875,-1000,-557.12890625,-552.734375
1731718808902,-595.21484375,-310.05859375,-915.0390625,-330.56640625,-311.5234375
1731718808905.9062,-958.984375,-300.29296875,-534.66796875,-218.75,-145.5078125
1731718808909.8125,-804.6875,-316.89453125,-583.49609375,-371.58203125,-288.0859375
1731718808913.7188,-385.7421875,-319.3359375,-987.79296875,-656.73828125,-641.6015625
1731718808917.625,-450.1953125,-297.8515625,-1000,-594.7265625,-593.26171875
1731718808921.5312,-939.94140625,-303.22265625,-518.5546875,316.89453125,546.875
1731718808925.4375,-853.515625,-318.84765625,-551.26953125,-270.99609375,-215.33203125
1731718808929.3438,-411.1328125,-319.82421875,-988.28125,-967.7734375,-1000
1731718808933.25,-387.6953125,-308.59375,-1000,-525.87890625,-544.921875
1731718808937.1562,-647.94921875,-272.4609375,-907.71484375,-707.03125,-759.765625
1731718808941.0625,-707.03125,-263.18359375,-774.4140625,-1000,-1000
1731718808944.9688,-477.5390625,-302.24609375,-931.640625,-914.0625,-946.2890625
1731718808948.875,-405.2734375,-319.3359375,-1000,-382.8125,-323.2421875
1731718808952.7812,-654.296875,-295.41015625,-900.87890625,-302.24609375,-287.109375
1731718808956.6875,-872.55859375,-297.8515625,-586.42578125,-600.09765625,-725.5859375
1731718808960.5938,-667.48046875,-310.05859375,-748.046875,-542.48046875,-544.921875
1731718808964.5,-537.109375,-332.03125,-934.5703125,295.41015625,520.99609375
1731718808968.4062,-806.640625,-327.1484375,-688.4765625,812.5,833.984375
1731718808972.3125,-781.73828125,-271.97265625,-678.7109375,-622.55859375,-758.30078125
1731718808976.2188,-633.7890625,-291.015625,-817.3828125,-1000,-1000
1731718808980.125,-478.515625,-322.265625,-973.14453125,-428.7109375,-362.3046875
1731718808984.0312,-424.31640625,-300.78125,-1000,-705.078125,-728.515625
1731718808987.9375,-631.34765625,-258.30078125,-948.73046875,-1000,-1000
1731718808991.8438,-744.62890625,-275.390625,-758.7890625,-869.140625,-844.7265625
1731718808995.75,-579.58984375,-329.58984375,-889.6484375,-190.4296875,-59.5703125
1731718808999.6562,-446.2890625,-316.89453125,-1000,-115.234375,12.20703125
1731718809003.5625,-663.57421875,-273.4375,-863.28125,-509.765625,-571.2890625
1731718809007.4688,-873.046875,-283.69140625,-560.546875,-534.66796875,-639.6484375
1731718809011.375,-702.63671875,-320.80078125,-706.54296875,-39.0625,100.5859375
1731718809015.2812,-414.55078125,-312.98828125,-1000,-243.65234375,-79.1015625
1731718809019.1875,-523.92578125,-268.5546875,-1000,-837.890625,-854.4921875
1731718809023.0938,-821.2890625,-265.625,-706.0546875,-812.5,-840.8203125
1731718809027,-731.93359375,-299.8046875,-695.3125,-310.05859375,-221.6796875
1731718809030.9062,-333.0078125,-297.36328125,-993.1640625,-531.73828125,-498.046875
1731718809034.8125,-364.2578125,-263.671875,-1000,-917.96875,-1000
1731718809038.7188,-809.08203125,-255.859375,-762.20703125,-612.3046875,-605.46875
1731718809042.625,-844.7265625,-293.9453125,-584.47265625,-111.81640625,28.3203125
1731718809046.5312,-439.94140625,-315.4296875,-958.0078125,-240.234375,-160.64453125
1731718809050.4375,-474.12109375,-308.59375,-1000,-269.53125,-200.68359375
1731718809054.3438,-811.5234375,-281.25,-744.62890625,-302.24609375,-267.08984375
1731718809058.25,-754.8828125,-276.3671875,-668.45703125,-708.0078125,-768.5546875
1731718809062.1562,-392.578125,-295.41015625,-947.75390625,-883.30078125,-988.76953125
1731718809066.0625,-287.109375,-287.59765625,-1000,-795.41015625,-856.4453125
1731718809069.9688,-742.67578125,-277.34375,-762.6953125,18.06640625,162.109375
1731718809073.875,-1000,-293.45703125,-419.43359375,321.77734375,474.12109375
1731718809077.7812,-524.90234375,-292.48046875,-853.515625,-731.4453125,-800.78125
1731718809081.6875,-305.6640625,-298.828125,-1000,-725.5859375,-738.28125
1731718809085.5938,-703.125,-287.59765625,-784.66796875,156.25,351.07421875
1731718809089.5,-830.078125,-250.9765625,-619.62890625,-463.37890625,-458.984375
1731718809093.4062,-634.765625,-285.64453125,-787.109375,-871.09375,-909.1796875
1731718809097.3125,-476.5625,-317.3828125,-963.37890625,-109.86328125,61.03515625
1731718809101.2188,-585.9375,-295.41015625,-888.18359375,97.65625,258.30078125
1731718809105.125,-715.8203125,-257.32421875,-842.28515625,-785.15625,-778.3203125
1731718809109.0312,-623.53515625,-270.5078125,-834.47265625,-1000,-1000
1731718809112.9375,-414.55078125,-302.24609375,-965.8203125,-562.01171875,-543.9453125
1731718809116.8438,-418.45703125,-294.43359375,-1000,-355.95703125,-303.22265625
1731718809120.75,-607.421875,-252.9296875,-953.125,-885.25390625,-883.30078125
1731718809124.6562,-657.2265625,-255.37109375,-822.75390625,-1000,-1000
1731718809128.5625,-536.62109375,-304.19921875,-923.828125,-416.50390625,-347.65625
1731718809132.4688,-492.1875,-313.4765625,-980.95703125,173.33984375,401.3671875
1731718809136.375,-570.3125,-259.27734375,-957.51953125,-683.59375,-689.453125
1731718809140.2812,-784.66796875,-254.39453125,-680.6640625,-854.98046875,-980.46875
1731718809144.1875,-738.28125,-311.5234375,-720.21484375,-102.5390625,136.23046875
1731718809148.0938,-430.6640625,-320.80078125,-983.3984375,-204.1015625,12.20703125
1731718809152,-434.5703125,-275.87890625,-1000,-885.7421875,-967.7734375
1731718809155.9062,-720.703125,-262.20703125,-834.47265625,-1000,-1000
1731718809159.8125,-805.6640625,-315.91796875,-657.71484375,-233.88671875,-44.43359375
1731718809163.7188,-455.56640625,-324.70703125,-902.83203125,-143.5546875,2.9296875
1731718809167.625,-343.26171875,-276.85546875,-1000,-823.2421875,-892.08984375
1731718809171.5312,-716.30859375,-265.625,-871.09375,-898.4375,-909.66796875
1731718809175.4375,-865.72265625,-302.734375,-616.2109375,-400.390625,-331.0546875
1731718809179.3438,-459.9609375,-319.82421875,-895.5078125,-500.9765625,-462.890625
1731718809183.25,-348.14453125,-307.6171875,-1000,-803.22265625,-839.35546875
1731718809187.1562,-745.60546875,-277.34375,-790.52734375,-534.1796875,-560.05859375
1731718809191.0625,-962.890625,-310.05859375,-464.35546875,-223.14453125,-62.01171875
1731718809194.9688,-668.9453125,-343.26171875,-782.71484375,-181.15234375,39.0625
1731718809198.875,-371.58203125,-321.2890625,-1000,-509.765625,-446.77734375
1731718809202.7812,-571.77734375,-286.62109375,-952.1484375,-733.3984375,-767.08984375
1731718809206.6875,-994.62890625,-312.01171875,-371.09375,458.0078125,623.046875
1731718809210.5938,-827.63671875,-333.49609375,-507.32421875,574.70703125,613.76953125
1731718809214.5,-310.546875,-308.59375,-1000,-633.7890625,-697.75390625
1731718809218.4062,-480.95703125,-298.33984375,-956.54296875,-572.75390625,-597.65625
1731718809222.3125,-827.1484375,-279.296875,-666.9921875,-456.0546875,-479.98046875
1731718809226.2188,-642.08984375,-298.828125,-767.578125,-935.546875,-977.5390625
1731718809230.125,-319.3359375,-315.91796875,-1000,-892.578125,-943.84765625
1731718809234.0312,-509.27734375,-308.10546875,-960.44921875,-225.5859375,-24.4140625
1731718809237.9375,-1000,-314.453125,-415.52734375,886.23046875,999.51171875
1731718809241.8438,-899.4140625,-318.84765625,-350.09765625,393.06640625,316.89453125
1731718809245.75,-421.875,-319.82421875,-927.24609375,-523.92578125,-553.22265625
1731718809249.6562,-397.4609375,-309.08203125,-1000,-66.40625,88.8671875
1731718809253.5625,-559.5703125,-247.55859375,-911.1328125,-560.546875,-540.52734375
1731718809257.4688,-606.93359375,-266.6015625,-829.58984375,-1000,-1000
1731718809261.375,-427.24609375,-286.1328125,-942.87109375,-842.7734375,-836.42578125
1731718809265.2812,-431.640625,-293.9453125,-982.421875,57.6171875,229.98046875
1731718809269.1875,-557.12890625,-288.57421875,-969.7265625,-425.29296875,-395.5078125
1731718809273.0938,-616.2109375,-237.79296875,-865.234375,-1000,-1000
1731718809277,-500.48828125,-268.5546875,-938.4765625,-881.8359375,-855.46875
1731718809280.9062,-579.58984375,-341.30859375,-907.2265625,522.4609375,624.51171875
1731718809284.8125,-795.41015625,-309.5703125,-633.30078125,961.9140625,928.22265625
1731718809288.7188,-689.94140625,-243.65234375,-708.0078125,-651.3671875,-770.99609375
1731718809292.625,-579.58984375,-278.80859375,-870.60546875,-979.4921875,-979.00390625
1731718809296.5312,-362.3046875,-311.5234375,-970.21484375,-456.0546875,-466.796875
1731718809300.4375,-259.765625,-272.94921875,-1000,-760.25390625,-837.40234375
1731718809304.3438,-596.6796875,-250.9765625,-906.73828125,-976.5625,-1000
1731718809308.25,-788.0859375,-282.71484375,-649.90234375,-598.14453125,-727.05078125
1731718809312.1562,-500.9765625,-305.17578125,-873.53515625,-301.26953125,-279.78515625
1731718809316.0625,-267.08984375,-285.64453125,-1000,-691.40625,-729.00390625
1731718809319.9688,-489.2578125,-250.9765625,-970.21484375,-1000,-1000
1731718809323.875,-763.671875,-276.85546875,-720.703125,-806.15234375,-830.078125
1731718809327.7812,-586.42578125,-294.43359375,-829.1015625,-307.6171875,-263.671875
1731718809331.6875,-338.8671875,-287.59765625,-1000,-157.2265625,-59.5703125
1731718809335.5938,-479.98046875,-261.23046875,-1000,-730.46875,-807.6171875
1731718809339.5,-867.1875,-264.16015625,-658.203125,-471.19140625,-455.078125
1731718809343.4062,-747.0703125,-301.7578125,-677.734375,-196.2890625,-92.28515625
1731718809347.3125,-292.48046875,-296.38671875,-1000,-789.0625,-816.89453125
1731718809351.2188,-389.16015625,-268.5546875,-998.53515625,-789.55078125,-855.46875
1731718809355.125,-789.0625,-254.39453125,-707.03125,-411.1328125,-454.1015625
1731718809359.0312,-717.7734375,-281.73828125,-739.74609375,-696.2890625,-768.5546875
1731718809362.9375,-414.0625,-317.3828125,-1000,-599.12109375,-620.1171875
1731718809366.8438,-388.18359375,-280.2734375,-1000,-426.26953125,-403.80859375
1731718809370.75,-851.07421875,-277.83203125,-694.3359375,133.7890625,338.8671875
1731718809374.6562,-918.9453125,-302.24609375,-521.97265625,127.44140625,353.515625
1731718809378.5625,-478.515625,-294.921875,-914.0625,-342.7734375,-254.8828125
1731718809382.4688,-378.90625,-291.015625,-1000,-162.109375,-77.1484375
1731718809386.375,-785.64453125,-276.85546875,-703.61328125,390.625,565.91796875
1731718809390.2812,-808.10546875,-265.625,-676.7578125,-437.01171875,-450.68359375
1731718809394.1875,-405.76171875,-267.578125,-964.35546875,-1000,-1000
1731718809398.0938,-282.71484375,-288.57421875,-1000,-514.16015625,-543.45703125
1731718809402,-438.96484375,-263.18359375,-998.53515625,-612.3046875,-674.8046875
1731718809405.9062,-634.765625,-231.93359375,-920.8984375,-1000,-1000
1731718809409.8125,-552.24609375,-262.20703125,-925.78125,-994.62890625,-1000
1731718809413.7188,-359.375,-296.875,-1000,-479.00390625,-447.265625
1731718809417.625,-424.8046875,-275.390625,-1000,-478.02734375,-466.30859375
1731718809421.5312,-721.6796875,-247.55859375,-833.49609375,-754.39453125,-875.48828125
1731718809425.4375,-784.1796875,-281.73828125,-678.22265625,-595.21484375,-572.75390625
1731718809429.3438,-566.89453125,-317.3828125,-899.4140625,83.49609375,396.97265625
1731718809433.25,-416.50390625,-277.83203125,-1000,-68.84765625,4.8828125
1731718809437.1562,-566.89453125,-233.3984375,-967.28515625,-926.7578125,-1000
1731718809441.0625,-741.69921875,-272.4609375,-851.5625,-1000,-1000
1731718809444.9688,-683.10546875,-314.453125,-858.3984375,89.84375,267.578125
1731718809448.875,-523.4375,-302.24609375,-920.41015625,610.83984375,627.9296875
1731718809452.7812,-488.28125,-252.9296875,-995.60546875,-753.41796875,-870.60546875
1731718809456.6875,-716.30859375,-253.41796875,-798.33984375,-1000,-1000
1731718809460.5938,-619.140625,-289.55078125,-816.89453125,-396.484375,-349.12109375
1731718809464.5,-304.6875,-291.50390625,-1000,-456.0546875,-433.59375
1731718809468.4062,-449.70703125,-268.5546875,-997.55859375,-542.96875,-607.91015625
1731718809472.3125,-812.01171875,-262.20703125,-722.16796875,-446.77734375,-534.66796875
1731718809476.2188,-744.140625,-290.0390625,-698.2421875,-295.41015625,-298.828125
1731718809480.125,-381.8359375,-300.78125,-981.4453125,-221.6796875,-181.640625
1731718809484.0312,-286.62109375,-244.140625,-1000,-629.8828125,-694.3359375
1731718809487.9375,-618.65234375,-223.14453125,-891.11328125,-808.59375,-926.7578125
1731718809491.8438,-743.65234375,-273.92578125,-732.421875,-596.19140625,-674.31640625
1731718809495.75,-383.7890625,-292.96875,-935.546875,-636.71875,-670.8984375
1731718809499.6562,-276.85546875,-275.390625,-1000,-826.171875,-901.85546875
1731718809503.5625,-675.29296875,-260.25390625,-866.69921875,-538.0859375,-586.9140625
1731718809507.4688,-895.01953125,-273.92578125,-562.01171875,-151.3671875,-85.44921875
1731718809511.375,-498.53515625,-278.3203125,-880.37109375,-594.23828125,-611.81640625
1731718809515.2812,-339.35546875,-287.109375,-1000,-423.33984375,-363.28125
1731718809519.1875,-702.63671875,-282.71484375,-829.1015625,27.83203125,302.24609375
1731718809523.0938,-900.390625,-277.83203125,-592.7734375,-254.8828125,-150.87890625
1731718809527,-546.875,-282.71484375,-855.95703125,-833.49609375,-975.5859375
1731718809530.9062,-245.1171875,-278.3203125,-1000,-830.078125,-895.99609375
1731718809534.8125,-580.56640625,-266.11328125,-840.8203125,101.5625,281.25
1731718809538.7188,-998.53515625,-279.78515625,-404.78515625,794.43359375,905.2734375
1731718809542.625,-653.80859375,-278.3203125,-685.05859375,-532.2265625,-697.265625
1731718809546.5312,-276.3671875,-289.0625,-1000,-826.171875,-882.32421875
1731718809550.4375,-496.09375,-292.48046875,-905.76171875,234.375,394.04296875
1731718809554.3438,-671.875,-249.51171875,-810.546875,-413.0859375,-436.03515625
1731718809558.25,-579.58984375,-256.8359375,-812.98828125,-1000,-1000
1731718809562.1562,-455.078125,-305.6640625,-958.0078125,-409.1796875,-221.19140625
1731718809566.0625,-582.51953125,-324.70703125,-884.27734375,585.44921875,705.56640625
1731718809569.9688,-673.33984375,-280.76171875,-854.4921875,-310.05859375,-437.98828125
1731718809573.875,-667.48046875,-274.90234375,-795.8984375,-1000,-1000
1731718809577.7812,-525.390625,-310.05859375,-920.8984375,-721.19140625,-707.03125
1731718809581.6875,-333.984375,-304.6875,-1000,-427.24609375,-432.12890625
1731718809585.5938,-438.96484375,-260.25390625,-997.0703125,-819.82421875,-862.3046875
1731718809589.5,-682.6171875,-260.25390625,-837.40234375,-1000,-1000
1731718809593.4062,-641.6015625,-307.12890625,-803.22265625,-624.51171875,-543.45703125
1731718809597.3125,-363.76953125,-315.4296875,-976.5625,-281.73828125,-154.78515625
1731718809601.2188,-382.8125,-283.203125,-1000,-730.46875,-782.71484375
1731718809605.125,-669.43359375,-266.6015625,-917.48046875,-1000,-1000
1731718809609.0312,-783.69140625,-324.70703125,-735.83984375,-251.953125,-105.46875
1731718809612.9375,-611.81640625,-359.86328125,-849.12109375,480.95703125,686.5234375
1731718809616.8438,-407.71484375,-311.03515625,-1000,-324.21875,-294.43359375
1731718809620.75,-591.30859375,-273.4375,-963.8671875,-1000,-1000
1731718809624.6562,-905.2734375,-314.453125,-578.61328125,-286.1328125,-165.0390625
1731718809628.5625,-687.5,-345.21484375,-725.09765625,381.8359375,469.7265625
1731718809632.4688,-297.8515625,-292.96875,-1000,-568.84765625,-613.76953125
1731718809636.375,-537.109375,-267.578125,-946.2890625,-942.3828125,-963.37890625
1731718809640.2812,-811.03515625,-292.48046875,-662.109375,-717.28515625,-808.59375
1731718809644.1875,-529.78515625,-310.05859375,-857.91015625,-770.99609375,-879.39453125
1731718809648.0938,-277.83203125,-310.05859375,-1000,-756.34765625,-808.59375
1731718809652,-527.83203125,-293.45703125,-946.77734375,-575.1953125,-562.98828125
1731718809655.9062,-891.11328125,-297.8515625,-575.68359375,-454.1015625,-401.85546875
1731718809659.8125,-778.3203125,-325.68359375,-598.14453125,-341.796875,-318.84765625
1731718809663.7188,-422.8515625,-334.47265625,-998.046875,-464.35546875,-408.203125
1731718809667.625,-509.765625,-313.4765625,-992.67578125,-550.78125,-517.08984375
1731718809671.5312,-941.40625,-312.98828125,-517.578125,215.8203125,403.3203125
1731718809675.4375,-782.71484375,-313.4765625,-612.79296875,-416.50390625,-406.73828125
1731718809679.3438,-345.703125,-309.5703125,-1000,-941.40625,-1000
1731718809683.25,-395.99609375,-297.36328125,-997.55859375,-449.21875,-443.84765625
1731718809687.1562,-717.7734375,-284.1796875,-812.98828125,-543.9453125,-588.37890625
1731718809691.0625,-752.9296875,-301.26953125,-718.75,-990.234375,-1000
1731718809694.9688,-450.68359375,-322.75390625,-949.70703125,-921.875,-960.44921875
1731718809698.875,-399.90234375,-322.265625,-1000,-280.76171875,-199.21875
1731718809702.7812,-732.91015625,-303.22265625,-782.2265625,-132.8125,-43.45703125
1731718809706.6875,-896.97265625,-304.19921875,-518.5546875,-517.578125,-620.60546875
1731718809710.5938,-645.99609375,-328.125,-766.11328125,-470.703125,-404.78515625
1731718809714.5,-524.4140625,-349.609375,-952.63671875,108.88671875,375.9765625
1731718809718.4062,-871.58203125,-333.49609375,-575.68359375,999.51171875,999.51171875
1731718809722.3125,-940.4296875,-302.734375,-437.01171875,161.1328125,29.78515625
1731718809726.2188,-624.51171875,-311.03515625,-764.16015625,-901.3671875,-950.68359375
1731718809730.125,-424.8046875,-331.54296875,-990.234375,-344.23828125,-273.92578125
1731718809734.0312,-400.87890625,-310.546875,-1000,-629.39453125,-648.92578125
1731718809737.9375,-607.421875,-281.73828125,-913.57421875,-1000,-1000
1731718809741.8438,-694.3359375,-315.91796875,-785.15625,-888.18359375,-861.81640625
1731718809745.75,-495.60546875,-349.12109375,-935.546875,-359.375,-280.2734375
1731718809749.6562,-419.43359375,-335.9375,-1000,-249.51171875,-142.08984375
1731718809753.5625,-668.9453125,-310.546875,-780.2734375,-573.2421875,-535.64453125
1731718809757.4688,-837.40234375,-323.2421875,-502.9296875,-626.46484375,-644.04296875
1731718809761.375,-789.0625,-381.8359375,-601.07421875,418.9453125,534.1796875
1731718809765.2812,-468.75,-350.5859375,-923.33984375,225.09765625,232.91015625
1731718809769.1875,-486.81640625,-289.55078125,-922.36328125,-690.4296875,-757.32421875
1731718809773.0938,-759.27734375,-300.78125,-628.41796875,-782.2265625,-804.19921875
1731718809777,-580.078125,-315.91796875,-778.80859375,-620.60546875,-641.11328125
1731718809780.9062,-262.6953125,-310.05859375,-1000,-716.30859375,-780.2734375
1731718809784.8125,-370.1171875,-281.73828125,-1000,-935.05859375,-1000
1731718809788.7188,-771.97265625,-292.96875,-766.11328125,-837.890625,-842.7734375
1731718809792.625,-722.65625,-322.265625,-721.19140625,-679.6875,-725.5859375
1731718809796.5312,-386.23046875,-312.98828125,-997.0703125,-416.9921875,-369.62890625
1731718809800.4375,-461.42578125,-315.91796875,-1000,-348.14453125,-242.1875
1731718809804.3438,-852.5390625,-300.29296875,-665.0390625,-267.578125,-178.7109375
1731718809808.25,-879.39453125,-309.08203125,-513.18359375,-336.9140625,-270.99609375
1731718809812.1562,-398.92578125,-325.68359375,-944.82421875,-861.81640625,-932.12890625
1731718809816.0625,-295.41015625,-317.3828125,-1000,-769.04296875,-828.125
1731718809819.9688,-672.8515625,-267.08984375,-766.6015625,-350.5859375,-350.09765625
1731718809823.875,-756.8359375,-301.26953125,-645.5078125,-622.55859375,-665.52734375
1731718809827.7812,-478.02734375,-310.05859375,-879.39453125,-664.0625,-634.27734375
1731718809831.6875,-327.1484375,-307.6171875,-1000,-462.40234375,-400.87890625
1731718809835.5938,-602.5390625,-296.38671875,-896.97265625,-292.48046875,-246.09375
1731718809839.5,-766.11328125,-275.87890625,-746.58203125,-784.66796875,-788.57421875
1731718809843.4062,-604.98046875,-311.5234375,-837.890625,-764.16015625,-817.3828125
1731718809847.3125,-426.7578125,-321.2890625,-1000,-150.390625,-14.6484375
1731718809851.2188,-738.28125,-329.1015625,-774.4140625,611.328125,797.8515625
1731718809855.125,-904.296875,-295.8984375,-613.28125,35.64453125,-44.921875
1731718809859.0312,-583.0078125,-297.8515625,-839.35546875,-1000,-1000
1731718809862.9375,-348.14453125,-312.01171875,-1000,-645.5078125,-633.30078125
1731718809866.8438,-667.96875,-338.37890625,-770.5078125,744.140625,824.70703125
1731718809870.75,-887.6953125,-299.31640625,-516.6015625,562.98828125,481.4453125
1731718809874.6562,-616.69921875,-275.390625,-706.0546875,-905.2734375,-986.328125
1731718809878.5625,-399.4140625,-330.56640625,-969.23828125,-744.140625,-736.328125
1731718809882.4688,-339.84375,-323.73046875,-1000,-388.18359375,-387.6953125
1731718809886.375,-584.47265625,-289.55078125,-884.765625,-605.95703125,-736.328125
1731718809890.2812,-791.50390625,-303.22265625,-611.328125,-804.19921875,-1000
1731718809894.1875,-666.50390625,-339.35546875,-734.86328125,-190.91796875,-35.64453125
1731718809898.0938,-423.33984375,-338.8671875,-969.23828125,76.171875,197.265625
1731718809902,-411.1328125,-284.1796875,-1000,-815.4296875,-898.4375
1731718809905.9062,-630.859375,-279.78515625,-859.86328125,-1000,-1000
1731718809909.8125,-749.0234375,-347.65625,-711.42578125,-182.6171875,-29.78515625
1731718809913.7188,-490.72265625,-341.30859375,-882.8125,320.80078125,389.6484375
1731718809917.625,-339.84375,-297.8515625,-1000,-758.30078125,-859.86328125
1731718809921.5312,-663.57421875,-289.0625,-885.7421875,-1000,-1000
1731718809925.4375,-713.37890625,-309.5703125,-725.09765625,-684.5703125,-728.02734375
1731718809929.3438,-371.58203125,-333.984375,-935.05859375,-746.09375,-804.19921875
1731718809933.25,-336.42578125,-331.54296875,-1000,-916.50390625,-1000
1731718809937.1562,-727.5390625,-316.40625,-809.08203125,-679.19921875,-712.890625
1731718809941.0625,-986.328125,-351.5625,-365.234375,189.94140625,475.09765625
1731718809944.9688,-665.0390625,-364.2578125,-714.35546875,63.4765625,273.4375
1731718809948.875,-354.4921875,-340.8203125,-1000,-758.30078125,-738.28125
1731718809952.7812,-604.4921875,-312.5,-919.43359375,-864.2578125,-900.390625
1731718809956.6875,-831.54296875,-297.36328125,-618.65234375,-727.5390625,-802.734375
1731718809960.5938,-565.4296875,-346.6796875,-834.47265625,-896.484375,-937.01171875
1731718809964.5,-277.83203125,-343.75,-1000,-921.38671875,-987.79296875
1731718809968.4062,-546.875,-311.03515625,-916.015625,-564.94140625,-604.98046875
1731718809972.3125,-941.40625,-337.40234375,-575.68359375,-345.703125,-306.15234375
1731718809976.2188,-702.1484375,-350.5859375,-740.234375,-888.18359375,-940.91796875
1731718809980.125,-349.609375,-343.75,-1000,-873.53515625,-939.453125
1731718809984.0312,-579.1015625,-342.28515625,-927.24609375,-307.6171875,-164.55078125
1731718809987.9375,-937.01171875,-339.84375,-639.6484375,-349.609375,-266.11328125
1731718809991.8438,-757.8125,-327.63671875,-672.36328125,-958.0078125,-1000
1731718809995.75,-437.01171875,-337.40234375,-971.6796875,-846.19140625,-869.140625
1731718809999.6562,-570.3125,-359.375,-972.65625,-187.5,-33.203125
1731718810003.5625,-786.1328125,-314.94140625,-839.35546875,-592.7734375,-535.64453125
1731718810007.4688,-734.375,-297.36328125,-744.140625,-1000,-1000
1731718810011.375,-530.2734375,-337.40234375,-928.22265625,-839.84375,-824.70703125
1731718810015.2812,-580.078125,-354.00390625,-948.73046875,70.80078125,279.78515625
1731718810019.1875,-694.82421875,-304.6875,-880.859375,-362.79296875,-299.31640625
1731718810023.0938,-770.99609375,-296.875,-770.5078125,-1000,-1000
1731718810027,-656.73828125,-352.05078125,-916.9921875,-892.08984375,-839.84375
1731718810030.9062,-664.55078125,-371.09375,-873.046875,503.41796875,630.37109375
1731718810034.8125,-797.8515625,-346.6796875,-690.4296875,577.1484375,604.00390625
1731718810038.7188,-756.34765625,-309.5703125,-744.62890625,-901.85546875,-959.47265625
1731718810042.625,-693.359375,-332.03125,-805.17578125,-890.13671875,-865.72265625
1731718810046.5312,-501.46484375,-351.5625,-949.21875,-293.45703125,-180.17578125
1731718810050.4375,-420.41015625,-309.5703125,-1000,-718.26171875,-724.609375
1731718810054.3438,-698.73046875,-283.69140625,-872.55859375,-1000,-1000
1731718810058.25,-858.88671875,-325.68359375,-610.3515625,-664.0625,-542.96875
1731718810062.1562,-564.94140625,-343.75,-856.93359375,-359.375,-201.171875
1731718810066.0625,-407.2265625,-334.47265625,-1000,-701.171875,-678.7109375
1731718810069.9688,-665.52734375,-305.6640625,-970.703125,-1000,-1000
1731718810073.875,-944.82421875,-327.1484375,-582.03125,-557.12890625,-621.58203125
1731718810077.7812,-851.07421875,-377.44140625,-586.9140625,468.75,608.88671875
1731718810081.6875,-518.06640625,-368.1640625,-953.61328125,45.41015625,270.5078125
1731718810085.5938,-544.43359375,-302.24609375,-942.87109375,-854.4921875,-898.92578125
1731718810089.5,-876.953125,-306.15234375,-547.8515625,-553.22265625,-515.625
1731718810093.4062,-1000,-387.20703125,-372.55859375,858.3984375,963.37890625
1731718810097.3125,-587.890625,-360.3515625,-827.63671875,436.5234375,384.27734375
1731718810101.2188,-416.50390625,-296.875,-1000,-810.546875,-872.0703125
1731718810105.125,-807.12890625,-306.640625,-677.734375,-716.796875,-773.4375
1731718810109.0312,-684.5703125,-323.2421875,-747.55859375,-870.1171875,-907.2265625
1731718810112.9375,-349.609375,-330.078125,-1000,-937.01171875,-958.49609375
1731718810116.8438,-482.91015625,-327.1484375,-968.26171875,-418.9453125,-328.61328125
1731718810120.75,-830.078125,-304.19921875,-646.97265625,-198.2421875,-145.99609375
1731718810124.6562,-819.3359375,-343.75,-537.109375,-509.27734375,-566.40625
1731718810128.5625,-445.3125,-326.66015625,-869.140625,-428.7109375,-411.1328125
1731718810132.4688,-416.9921875,-353.02734375,-1000,-281.25,-222.16796875
1731718810136.375,-874.51171875,-341.796875,-604.00390625,284.1796875,525.390625
1731718810140.2812,-872.0703125,-291.50390625,-500,-274.90234375,-212.40234375
1731718810144.1875,-467.7734375,-334.47265625,-933.59375,-1000,-1000
1731718810148.0938,-341.796875,-324.21875,-1000,-708.49609375,-712.890625
1731718810152,-560.546875,-303.22265625,-981.93359375,-743.65234375,-785.15625
1731718810155.9062,-770.5078125,-315.4296875,-841.30859375,-1000,-1000
1731718810159.8125,-609.86328125,-328.125,-890.625,-1000,-1000
1731718810163.7188,-384.27734375,-347.65625,-1000,-574.70703125,-544.43359375
1731718810167.625,-456.0546875,-294.43359375,-1000,-576.66015625,-576.66015625
1731718810171.5312,-767.08984375,-283.203125,-742.1875,-829.1015625,-962.890625
1731718810175.4375,-774.4140625,-333.49609375,-617.1875,-644.04296875,-720.21484375
1731718810179.3438,-544.921875,-345.703125,-843.26171875,58.10546875,279.296875
1731718810183.25,-510.25390625,-346.19140625,-979.4921875,-44.43359375,52.734375
1731718810187.1562,-659.66796875,-302.734375,-916.015625,-940.91796875,-1000
1731718810191.0625,-740.72265625,-304.6875,-758.7890625,-1000,-1000
1731718810194.9688,-679.19921875,-339.84375,-825.1953125,-3.41796875,197.265625
1731718810198.875,-619.140625,-343.75,-900.87890625,435.05859375,478.02734375
1731718810202.7812,-591.30859375,-298.828125,-990.234375,-897.94921875,-987.3046875
1731718810206.6875,-738.76953125,-279.78515625,-765.13671875,-989.2578125,-955.56640625
1731718810210.5938,-710.9375,-339.35546875,-739.2578125,-134.27734375,1.46484375
1731718810214.5,-417.48046875,-347.65625,-1000,-410.64453125,-329.1015625
1731718810218.4062,-530.2734375,-290.52734375,-965.8203125,-729.00390625,-775.390625
1731718810222.3125,-878.41796875,-291.015625,-580.56640625,-566.40625,-601.5625
1731718810226.2188,-909.1796875,-344.23828125,-471.6796875,290.52734375,437.5
1731718810230.125,-491.2109375,-329.1015625,-881.34765625,266.11328125,386.71875
1731718810234.0312,-359.86328125,-276.3671875,-1000,-659.66796875,-650.390625
1731718810237.9375,-736.81640625,-293.45703125,-826.171875,-859.375,-873.53515625
1731718810241.8438,-820.3125,-336.9140625,-675.29296875,-583.984375,-596.6796875
1731718810245.75,-386.71875,-289.0625,-937.98828125,-712.40234375,-778.80859375
1731718810249.6562,-329.58984375,-301.26953125,-1000,-904.78515625,-983.3984375
1731718810253.5625,-697.265625,-292.48046875,-871.09375,-846.19140625,-917.96875
1731718810257.4688,-753.90625,-268.06640625,-683.10546875,-921.38671875,-961.9140625
1731718810261.375,-471.19140625,-335.44921875,-918.45703125,-869.140625,-920.8984375
1731718810265.2812,-401.85546875,-312.5,-1000,-478.515625,-492.67578125
1731718810269.1875,-718.26171875,-293.9453125,-744.140625,1.46484375,147.4609375
1731718810273.0938,-959.9609375,-327.63671875,-389.6484375,238.28125,365.234375
1731718810277,-531.25,-304.6875,-798.33984375,-625.48828125,-708.49609375
1731718810280.9062,-267.578125,-352.05078125,-1000,-835.9375,-898.4375
1731718810284.8125,-596.19140625,-326.171875,-852.5390625,-219.23828125,-153.80859375
1731718810288.7188,-838.37890625,-289.55078125,-625.9765625,-430.17578125,-434.5703125
1731718810292.625,-647.4609375,-343.26171875,-808.59375,-989.74609375,-1000
1731718810296.5312,-348.14453125,-307.12890625,-1000,-727.5390625,-739.2578125
1731718810300.4375,-586.9140625,-312.98828125,-898.4375,-75.1953125,82.51953125
1731718810304.3438,-853.515625,-307.6171875,-734.375,-568.359375,-576.66015625
1731718810308.25,-707.03125,-290.52734375,-718.75,-1000,-1000
1731718810312.1562,-519.53125,-330.078125,-932.6171875,-374.51171875,-220.21484375
1731718810316.0625,-608.3984375,-311.5234375,-813.96484375,560.546875,671.875
1731718810319.9688,-704.1015625,-274.4140625,-805.17578125,-380.37109375,-486.328125
1731718810323.875,-695.80078125,-286.62109375,-761.71875,-1000,-1000
1731718810327.7812,-509.765625,-304.19921875,-897.94921875,-644.53125,-636.23046875
1731718810331.6875,-400.87890625,-330.078125,-1000,-268.06640625,-222.65625
1731718810335.5938,-543.9453125,-291.9921875,-981.93359375,-786.62109375,-789.55078125
1731718810339.5,-710.9375,-272.94921875,-820.3125,-1000,-1000
1731718810343.4062,-665.0390625,-334.9609375,-833.984375,-615.234375,-566.40625
1731718810347.3125,-517.578125,-344.23828125,-954.1015625,65.91796875,313.96484375
1731718810351.2188,-533.69140625,-316.89453125,-991.2109375,-546.875,-515.625
1731718810355.125,-720.703125,-287.59765625,-841.796875,-1000,-1000
1731718810359.0312,-839.35546875,-329.1015625,-632.8125,-374.0234375,-176.7578125
1731718810362.9375,-799.8046875,-392.08984375,-657.2265625,818.84765625,908.69140625
1731718810366.8438,-501.953125,-315.4296875,-950.68359375,-157.2265625,-257.32421875
1731718810370.75,-629.8828125,-296.875,-925.29296875,-1000,-1000
1731718810374.6562,-842.7734375,-351.5625,-623.046875,-581.54296875,-555.6640625
1731718810378.5625,-473.14453125,-367.67578125,-874.51171875,-554.6875,-563.4765625
1731718810382.4688,-324.70703125,-374.51171875,-1000,-846.19140625,-894.53125
1731718810386.375,-629.8828125,-326.171875,-914.0625,-921.38671875,-931.15234375
1731718810390.2812,-838.37890625,-354.4921875,-623.53515625,-754.8828125,-793.45703125
1731718810394.1875,-532.2265625,-365.72265625,-851.07421875,-708.0078125,-753.90625
1731718810398.0938,-287.59765625,-351.07421875,-1000,-763.18359375,-782.2265625
1731718810402,-601.5625,-371.09375,-943.359375,-773.92578125,-808.10546875
1731718810405.9062,-956.0546875,-349.609375,-506.8359375,-457.03125,-359.375
1731718810409.8125,-815.91796875,-397.4609375,-596.19140625,-312.98828125,-159.66796875
1731718810413.7188,-494.62890625,-402.83203125,-1000,-359.86328125,-184.08203125
1731718810417.625,-573.2421875,-355.46875,-927.24609375,-436.5234375,-349.12109375
1731718810421.5312,-938.4765625,-365.234375,-549.8046875,-270.99609375,-218.26171875
1731718810425.4375,-755.859375,-366.2109375,-665.0390625,-756.8359375,-797.36328125
1731718810429.3438,-371.58203125,-386.71875,-1000,-900.390625,-928.7109375
1731718810433.25,-463.37890625,-372.0703125,-988.28125,-503.90625,-465.8203125
1731718810437.1562,-777.34375,-335.44921875,-725.5859375,-576.171875,-578.61328125
1731718810441.0625,-760.25390625,-351.5625,-643.5546875,-957.51953125,-989.2578125
1731718810444.9688,-405.76171875,-342.28515625,-949.21875,-837.890625,-872.55859375
1731718810448.875,-401.3671875,-346.19140625,-1000,-248.53515625,-143.06640625
1731718810452.7812,-791.50390625,-345.21484375,-716.796875,24.4140625,191.89453125
1731718810456.6875,-902.34375,-334.47265625,-486.328125,-522.94921875,-545.8984375
1731718810460.5938,-610.83984375,-361.81640625,-817.3828125,-666.50390625,-677.734375
1731718810464.5,-517.08984375,-377.9296875,-964.84375,24.4140625,266.6015625
1731718810468.4062,-614.74609375,-312.5,-838.37890625,-217.7734375,-107.91015625
1731718810472.3125,-687.01171875,-287.109375,-720.703125,-1000,-1000
1731718810476.2188,-605.46875,-353.02734375,-814.453125,-975.09765625,-952.1484375
1731718810480.125,-518.06640625,-367.1875,-891.6015625,145.01953125,324.21875
1731718810484.0312,-551.7578125,-343.26171875,-895.5078125,-2.44140625,49.8046875
1731718810487.9375,-656.25,-304.6875,-828.125,-1000,-1000
1731718810491.8438,-675.78125,-333.49609375,-749.0234375,-954.1015625,-913.57421875
1731718810495.75,-615.234375,-362.79296875,-772.94921875,343.26171875,506.34765625
1731718810499.6562,-601.5625,-351.5625,-817.87109375,341.30859375,444.82421875
1731718810503.5625,-791.9921875,-364.74609375,-772.4609375,-672.8515625,-719.7265625
1731718810507.4688,-850.09765625,-319.3359375,-505.859375,-561.03515625,-643.5546875
1731718810511.375,-567.3828125,-358.3984375,-783.203125,-248.046875,-175.78125
1731718810515.2812,-373.53515625,-366.2109375,-1000,-470.703125,-372.0703125
1731718810519.1875,-570.80078125,-295.41015625,-870.1171875,-743.1640625,-813.4765625
1731718810523.0938,-847.16796875,-330.56640625,-532.71484375,-658.69140625,-745.60546875
1731718810527,-637.20703125,-364.2578125,-748.53515625,-473.14453125,-433.10546875
1731718810530.9062,-320.3125,-368.1640625,-1000,-695.80078125,-692.3828125
1731718810534.8125,-446.77734375,-317.87109375,-993.1640625,-939.94140625,-1000
1731718810538.7188,-813.96484375,-298.828125,-661.1328125,-820.3125,-854.4921875
1731718810542.625,-772.4609375,-363.28125,-721.6796875,-645.01953125,-647.94921875
1731718810546.5312,-474.12109375,-357.421875,-1000,-414.0625,-244.140625
1731718810550.4375,-579.58984375,-334.47265625,-918.9453125,-336.42578125,-118.1640625
1731718810554.3438,-906.25,-345.703125,-658.203125,-451.66015625,-394.04296875
1731718810558.25,-805.6640625,-352.5390625,-656.73828125,-700.1953125,-755.37109375
1731718810562.1562,-390.13671875,-333.0078125,-957.51953125,-812.5,-860.83984375
1731718810566.0625,-336.9140625,-318.359375,-1000,-851.07421875,-900.87890625
1731718810569.9688,-787.59765625,-327.1484375,-713.37890625,-148.92578125,-41.50390625
1731718810573.875,-963.8671875,-361.328125,-316.40625,502.9296875,691.89453125
1731718810577.7812,-513.18359375,-368.65234375,-771.484375,-243.65234375,-216.796875
1731718810581.6875,-291.50390625,-339.35546875,-1000,-501.46484375,-452.63671875
1731718810585.5938,-700.68359375,-322.265625,-718.75,65.91796875,254.39453125
1731718810589.5,-836.9140625,-316.89453125,-555.17578125,-484.86328125,-458.984375
1731718810593.4062,-574.70703125,-341.796875,-821.2890625,-746.58203125,-723.14453125
1731718810597.3125,-517.08984375,-411.1328125,-994.62890625,-170.41015625,29.296875
1731718810601.2188,-632.8125,-348.6328125,-889.16015625,-298.828125,-171.875
1731718810605.125,-757.32421875,-295.8984375,-750.9765625,-870.60546875,-861.81640625
1731718810609.0312,-653.3203125,-376.953125,-889.6484375,-1000,-1000
1731718810612.9375,-403.3203125,-328.61328125,-988.28125,-511.23046875,-465.33203125
1731718810616.8438,-640.13671875,-373.53515625,-867.67578125,213.8671875,340.8203125
1731718810620.75,-765.625,-329.58984375,-755.859375,-674.31640625,-672.36328125
1731718810624.6562,-647.4609375,-313.96484375,-731.93359375,-1000,-1000
1731718810628.5625,-508.30078125,-402.34375,-941.89453125,-582.03125,-525.87890625
1731718810632.4688,-662.109375,-342.7734375,-694.82421875,812.5,881.34765625
1731718810636.375,-981.93359375,-400.87890625,-483.3984375,771.484375,708.0078125
1731718810640.2812,-883.7890625,-364.2578125,-492.1875,-511.23046875,-580.078125
1731718810644.1875,-622.55859375,-339.84375,-727.5390625,-333.49609375,-139.16015625
1731718810648.0938,-435.546875,-418.45703125,-1000,-444.3359375,-340.8203125
1731718810652,-464.35546875,-301.26953125,-990.234375,-1000,-1000
1731718810655.9062,-707.51953125,-304.19921875,-793.9453125,-1000,-1000
1731718810659.8125,-749.0234375,-388.671875,-743.65234375,-315.91796875,-158.203125
1731718810663.7188,-466.796875,-359.375,-940.4296875,-91.30859375,57.12890625
1731718810667.625,-412.59765625,-344.7265625,-1000,-944.82421875,-978.515625
1731718810671.5312,-656.25,-281.25,-761.23046875,-1000,-1000
1731718810675.4375,-878.41796875,-368.1640625,-552.734375,-128.90625,72.75390625
1731718810679.3438,-567.87109375,-411.1328125,-874.51171875,-30.2734375,141.6015625
1731718810683.25,-361.328125,-328.61328125,-1000,-877.9296875,-948.73046875
1731718810687.1562,-782.71484375,-363.76953125,-841.796875,-919.921875,-980.46875
1731718810691.0625,-1000,-395.99609375,-382.8125,194.3359375,387.20703125
1731718810694.9688,-863.76953125,-405.76171875,-496.58203125,979.4921875,999.51171875
1731718810698.875,-435.05859375,-364.2578125,-970.21484375,-191.40625,-295.41015625
1731718810702.7812,-523.92578125,-306.640625,-943.84765625,-1000,-1000
1731718810706.6875,-785.15625,-343.26171875,-664.0625,-912.109375,-931.640625
1731718810710.5938,-463.8671875,-341.796875,-881.34765625,-979.98046875,-994.62890625
1731718810714.5,-254.39453125,-342.28515625,-1000,-969.7265625,-1000
1731718810718.4062,-541.50390625,-330.078125,-950.1953125,-880.859375,-944.3359375
1731718810722.3125,-768.5546875,-295.8984375,-697.75390625,-935.05859375,-954.1015625
1731718810726.2188,-645.5078125,-357.421875,-783.69140625,-914.55078125,-885.25390625
1731718810730.125,-433.10546875,-409.66796875,-1000,-795.8984375,-785.15625
1731718810734.0312,-604.4921875,-392.578125,-951.171875,-548.33984375,-426.26953125
1731718810737.9375,-926.26953125,-363.76953125,-615.234375,-501.46484375,-458.49609375
1731718810741.8438,-753.41796875,-348.14453125,-621.58203125,-844.23828125,-949.21875
1731718810745.75,-400.87890625,-369.140625,-995.1171875,-902.34375,-949.21875
1731718810749.6562,-544.921875,-355.95703125,-895.5078125,-179.19921875,-36.62109375
1731718810753.5625,-848.6328125,-331.0546875,-645.01953125,-266.11328125,-189.94140625
1731718810757.4688,-775.390625,-375,-747.55859375,-1000,-1000
1731718810761.375,-483.88671875,-356.4453125,-962.40234375,-859.86328125,-837.890625
1731718810765.2812,-497.55859375,-352.05078125,-961.42578125,-134.765625,2.9296875
1731718810769.1875,-689.94140625,-334.9609375,-871.09375,-611.328125,-584.47265625
1731718810773.0938,-778.3203125,-353.02734375,-728.515625,-1000,-1000
1731718810777,-609.375,-404.296875,-895.01953125,-812.01171875,-777.34375
1731718810780.9062,-502.44140625,-396.97265625,-960.9375,56.640625,342.7734375
1731718810784.8125,-658.69140625,-372.0703125,-793.45703125,-131.34765625,-3.90625
1731718810788.7188,-765.13671875,-330.56640625,-630.37109375,-976.07421875,-1000
1731718810792.625,-664.0625,-356.4453125,-741.69921875,-918.45703125,-858.88671875
1731718810796.5312,-739.2578125,-439.94140625,-748.53515625,569.82421875,689.94140625
1731718810800.4375,-741.69921875,-414.0625,-744.62890625,419.921875,391.11328125
1731718810804.3438,-730.46875,-339.84375,-790.0390625,-1000,-1000
1731718810808.25,-793.45703125,-360.3515625,-655.76171875,-812.98828125,-712.40234375
1731718810812.1562,-514.16015625,-384.27734375,-888.18359375,-317.87109375,-124.51171875
1731718810816.0625,-380.37109375,-355.46875,-1000,-707.03125,-686.03515625
1731718810819.9688,-633.7890625,-328.61328125,-946.2890625,-1000,-1000
1731718810823.875,-881.34765625,-382.8125,-668.45703125,-626.953125,-675.29296875
1731718810827.7812,-878.90625,-432.6171875,-580.56640625,706.0546875,774.90234375
1731718810831.6875,-540.52734375,-380.37109375,-815.4296875,398.92578125,425.29296875
1731718810835.5938,-517.578125,-322.265625,-886.71875,-808.59375,-873.046875
1731718810839.5,-825.1953125,-348.14453125,-574.70703125,-732.91015625,-726.07421875
1731718810843.4062,-595.703125,-370.60546875,-760.25390625,-591.30859375,-619.62890625
1731718810847.3125,-281.25,-364.74609375,-1000,-891.6015625,-958.984375
1731718810851.2188,-484.86328125,-356.93359375,-993.1640625,-974.609375,-986.328125
1731718810855.125,-894.04296875,-324.70703125,-608.3984375,-453.61328125,-374.51171875
1731718810859.0312,-750.9765625,-337.40234375,-660.64453125,-555.17578125,-558.59375
1731718810862.9375,-335.44921875,-361.328125,-1000,-930.6640625,-1000
1731718810866.8438,-475.5859375,-332.51953125,-976.5625,-583.0078125,-545.8984375
1731718810870.75,-891.6015625,-354.4921875,-649.90234375,-361.328125,-334.9609375
1731718810874.6562,-834.9609375,-354.00390625,-511.71875,-519.04296875,-539.0625
1731718810878.5625,-500.48828125,-339.35546875,-842.28515625,-356.93359375,-229.00390625
1731718810882.4688,-474.12109375,-368.1640625,-1000,-326.171875,-233.88671875
1731718810886.375,-876.953125,-316.89453125,-508.30078125,425.78125,653.80859375
1731718810890.2812,-999.0234375,-367.1875,-315.4296875,373.046875,490.72265625
1731718810894.1875,-511.71875,-393.06640625,-894.53125,-810.05859375,-895.01953125
1731718810898.0938,-294.921875,-322.75390625,-1000,-725.5859375,-764.6484375
1731718810902,-583.984375,-331.0546875,-936.5234375,-729.00390625,-772.4609375
1731718810905.9062,-731.4453125,-302.734375,-750,-1000,-1000
1731718810909.8125,-559.08203125,-346.19140625,-874.51171875,-1000,-1000
1731718810913.7188,-403.3203125,-394.53125,-1000,-612.3046875,-573.73046875
1731718810917.625,-488.28125,-332.51953125,-998.53515625,-620.60546875,-632.8125
1731718810921.5312,-794.921875,-321.77734375,-687.01171875,-768.06640625,-942.87109375
1731718810925.4375,-725.5859375,-346.19140625,-630.859375,-634.27734375,-699.21875
1731718810929.3438,-543.45703125,-375.48828125,-853.02734375,53.7109375,288.57421875
1731718810933.25,-778.3203125,-404.296875,-697.265625,832.51953125,896.97265625
1731718810937.1562,-826.66015625,-359.375,-678.22265625,-350.5859375,-483.3984375
1731718810941.0625,-695.80078125,-357.421875,-752.44140625,-1000,-1000
1731718810944.9688,-480.95703125,-365.234375,-940.91796875,-457.51953125,-393.5546875
1731718810948.875,-328.125,-335.9375,-1000,-635.25390625,-648.4375
1731718810952.7812,-534.66796875,-307.6171875,-980.46875,-1000,-1000
1731718810956.6875,-765.13671875,-336.9140625,-809.08203125,-934.08203125,-910.64453125
1731718810960.5938,-613.28125,-391.11328125,-879.39453125,-544.921875,-495.60546875
1731718810964.5,-332.51953125,-354.4921875,-1000,-551.26953125,-516.6015625
1731718810968.4062,-541.015625,-317.87109375,-931.15234375,-611.328125,-579.1015625
1731718810972.3125,-868.1640625,-322.265625,-558.59375,-512.6953125,-473.6328125
1731718810976.2188,-870.1171875,-370.1171875,-512.20703125,340.33203125,489.74609375
1731718810980.125,-516.11328125,-418.45703125,-935.546875,109.86328125,177.734375
1731718810984.0312,-451.171875,-324.21875,-986.81640625,-587.40234375,-569.82421875
1731718810987.9375,-807.6171875,-322.265625,-675.78125,-587.40234375,-683.10546875
1731718810991.8438,-750.9765625,-368.1640625,-701.171875,-604.00390625,-690.91796875
1731718810995.75,-308.10546875,-300.78125,-972.16796875,-688.96484375,-717.28515625
1731718810999.6562,-334.9609375,-333.0078125,-1000,-875.9765625,-950.68359375
1731718811003.5625,-724.12109375,-313.4765625,-859.375,-827.1484375,-894.04296875
1731718811007.4688,-764.16015625,-313.96484375,-679.6875,-808.10546875,-907.2265625
1731718811011.375,-416.9921875,-346.6796875,-937.98828125,-827.63671875,-886.23046875
1731718811015.2812,-376.46484375,-314.453125,-1000,-406.73828125,-347.65625
1731718811019.1875,-757.8125,-326.171875,-790.0390625,-172.36328125,-62.98828125
1731718811023.0938,-802.734375,-312.5,-628.41796875,-610.3515625,-626.46484375
1731718811027,-446.77734375,-323.73046875,-907.2265625,-878.90625,-991.69921875
1731718811030.9062,-278.3203125,-370.1171875,-1000,-770.99609375,-817.3828125
1731718811034.8125,-621.58203125,-321.77734375,-838.8671875,-117.1875,12.20703125
1731718811038.7188,-927.734375,-314.453125,-504.39453125,42.96875,117.1875
1731718811042.625,-650.390625,-341.796875,-718.75,-550.29296875,-575.68359375
1731718811046.5312,-315.4296875,-339.35546875,-1000,-582.03125,-529.296875
1731718811050.4375,-595.703125,-336.9140625,-856.4453125,129.8828125,318.84765625
1731718811054.3438,-836.9140625,-312.01171875,-665.0390625,-271.97265625,-249.0234375
1731718811058.25,-640.625,-332.03125,-774.4140625,-1000,-1000
1731718811062.1562,-456.54296875,-337.890625,-959.9609375,-346.6796875,-187.5
1731718811066.0625,-563.96484375,-368.1640625,-926.26953125,119.62890625,341.796875
1731718811069.9688,-683.10546875,-312.01171875,-810.05859375,-678.7109375,-677.734375
1731718811073.875,-662.109375,-305.17578125,-749.51171875,-1000,-1000
1731718811077.7812,-537.109375,-404.296875,-917.96875,-651.3671875,-601.07421875
1731718811081.6875,-448.2421875,-312.98828125,-920.8984375,105.46875,235.83984375
1731718811085.5938,-593.75,-334.9609375,-954.58984375,-664.0625,-655.2734375
1731718811089.5,-690.91796875,-327.63671875,-819.3359375,-1000,-1000
1731718811093.4062,-548.33984375,-330.56640625,-883.7890625,-630.37109375,-616.2109375
1731718811097.3125,-455.56640625,-404.78515625,-1000,-147.4609375,9.765625
1731718811101.2188,-549.31640625,-319.82421875,-932.6171875,-474.12109375,-408.69140625
1731718811105.125,-738.28125,-325.68359375,-786.62109375,-1000,-1000
1731718811109.0312,-714.35546875,-369.62890625,-711.9140625,-433.59375,-320.80078125
1731718811112.9375,-501.953125,-372.55859375,-905.76171875,129.39453125,370.60546875
1731718811116.8438,-467.28515625,-382.8125,-1000,-568.84765625,-543.45703125
1731718811120.75,-661.62109375,-306.15234375,-846.19140625,-1000,-1000
1731718811124.6562,-796.38671875,-333.984375,-603.02734375,-467.7734375,-357.421875
1731718811128.5625,-490.234375,-405.76171875,-892.08984375,-362.3046875,-270.01953125
1731718811132.4688,-295.41015625,-337.40234375,-1000,-687.98828125,-739.2578125
1731718811136.375,-588.8671875,-312.01171875,-917.48046875,-982.421875,-1000
1731718811140.2812,-954.58984375,-380.859375,-506.34765625,-194.82421875,-34.1796875
1731718811144.1875,-882.32421875,-398.92578125,-507.8125,907.2265625,999.51171875
1731718811148.0938,-460.44921875,-360.3515625,-983.3984375,-13.18359375,0
1731718811152,-505.859375,-309.08203125,-991.2109375,-842.28515625,-871.09375
1731718811155.9062,-959.47265625,-362.79296875,-431.15234375,63.96484375,232.421875
1731718811159.8125,-847.16796875,-400.87890625,-526.85546875,450.68359375,684.08203125
1731718811163.7188,-341.796875,-344.7265625,-1000,-267.578125,-169.43359375
1731718811167.625,-439.453125,-329.1015625,-993.65234375,-607.421875,-617.1875
1731718811171.5312,-921.38671875,-339.84375,-497.0703125,94.7265625,224.12109375
1731718811175.4375,-676.26953125,-327.1484375,-586.42578125,-304.19921875,-263.18359375
1731718811179.3438,-257.32421875,-370.60546875,-1000,-1000,-1000
1731718811183.25,-359.375,-337.40234375,-993.65234375,-729.98046875,-831.54296875
1731718811187.1562,-629.39453125,-272.4609375,-866.2109375,-844.23828125,-904.78515625
1731718811191.0625,-661.62109375,-337.40234375,-839.84375,-1000,-1000
1731718811194.9688,-368.1640625,-325.1953125,-968.26171875,-902.83203125,-957.03125
1731718811198.875,-396.97265625,-340.33203125,-1000,-572.75390625,-604.00390625
1731718811202.7812,-740.234375,-329.1015625,-826.171875,-434.08203125,-458.984375
1731718811206.6875,-829.58984375,-320.3125,-558.59375,-663.0859375,-712.40234375
1731718811210.5938,-523.92578125,-374.0234375,-875.9765625,-747.0703125,-789.55078125
1731718811214.5,-386.71875,-336.42578125,-998.046875,-187.01171875,-50.78125
1731718811218.4062,-576.66015625,-317.87109375,-924.8046875,-434.08203125,-379.39453125
1731718811222.3125,-674.8046875,-310.05859375,-801.26953125,-1000,-1000
1731718811226.2188,-488.76953125,-299.31640625,-873.53515625,-910.64453125,-933.59375
1731718811230.125,-472.65625,-375,-1000,12.6953125,192.87109375
1731718811234.0312,-557.6171875,-337.890625,-976.5625,-233.88671875,-142.578125
1731718811237.9375,-684.5703125,-300.78125,-845.703125,-1000,-1000
1731718811241.8438,-676.7578125,-358.88671875,-832.03125,-952.63671875,-919.921875
1731718811245.75,-610.3515625,-389.16015625,-866.69921875,291.9921875,463.8671875
1731718811249.6562,-649.90234375,-377.9296875,-806.15234375,458.49609375,675.29296875
1731718811253.5625,-687.5,-308.59375,-701.66015625,-564.94140625,-567.3828125
1731718811257.4688,-764.6484375,-348.14453125,-545.41015625,-598.14453125,-684.08203125
1731718811261.375,-711.9140625,-411.62109375,-695.80078125,473.6328125,581.0546875
1731718811265.2812,-419.921875,-349.12109375,-968.26171875,30.2734375,19.53125
1731718811269.1875,-506.34765625,-310.05859375,-984.375,-1000,-1000
1731718811273.0938,-804.19921875,-332.51953125,-638.18359375,-757.32421875,-708.49609375
1731718811277,-561.03515625,-350.5859375,-797.36328125,-417.96875,-364.2578125
1731718811280.9062,-267.578125,-353.02734375,-1000,-700.1953125,-740.72265625
1731718811284.8125,-463.37890625,-322.75390625,-1000,-1000,-1000
1731718811288.7188,-803.7109375,-337.890625,-734.375,-812.01171875,-819.3359375
1731718811292.625,-675.78125,-359.375,-749.0234375,-468.75,-448.2421875
1731718811296.5312,-390.625,-362.3046875,-1000,-274.90234375,-101.07421875
1731718811300.4375,-471.6796875,-337.40234375,-951.171875,-404.296875,-255.37109375
1731718811304.3438,-840.33203125,-318.359375,-557.12890625,-302.24609375,-246.09375
1731718811308.25,-901.85546875,-377.9296875,-432.6171875,258.7890625,374.0234375
1731718811312.1562,-348.14453125,-363.28125,-935.05859375,-490.72265625,-490.234375
1731718811316.0625,-272.94921875,-327.63671875,-1000,-883.30078125,-971.6796875
1731718811319.9688,-696.2890625,-320.80078125,-824.70703125,-649.4140625,-751.953125
1731718811323.875,-708.984375,-318.84765625,-737.3046875,-911.62109375,-949.21875
1731718811327.7812,-427.24609375,-360.3515625,-967.28515625,-887.6953125,-895.99609375
1731718811331.6875,-409.1796875,-339.84375,-1000,-303.22265625,-211.9140625
1731718811335.5938,-716.796875,-330.078125,-819.82421875,-175.78125,-76.66015625
1731718811339.5,-762.6953125,-316.40625,-688.96484375,-810.546875,-831.54296875
1731718811343.4062,-506.8359375,-322.265625,-881.34765625,-674.31640625,-675.29296875
1731718811347.3125,-422.36328125,-372.0703125,-1000,-44.921875,149.90234375
1731718811351.2188,-693.84765625,-339.84375,-739.74609375,384.27734375,577.63671875
1731718811355.125,-776.85546875,-316.89453125,-657.2265625,-534.66796875,-585.44921875
1731718811359.0312,-570.3125,-344.23828125,-848.14453125,-1000,-1000
1731718811362.9375,-371.58203125,-355.46875,-984.375,-415.0390625,-340.8203125
1731718811366.8438,-471.19140625,-349.12109375,-990.72265625,-347.16796875,-307.12890625
1731718811370.75,-685.546875,-308.10546875,-839.84375,-857.91015625,-859.375
1731718811374.6562,-627.44140625,-341.30859375,-846.19140625,-1000,-1000
1731718811378.5625,-476.5625,-374.0234375,-955.078125,-445.80078125,-404.78515625
1731718811382.4688,-559.5703125,-340.33203125,-869.140625,420.41015625,441.40625
1731718811386.375,-676.26953125,-304.19921875,-836.9140625,-500.9765625,-648.4375
1731718811390.2812,-752.44140625,-316.40625,-629.8828125,-810.05859375,-917.96875
1731718811394.1875,-581.0546875,-359.86328125,-790.0390625,-60.05859375,206.0546875
1731718811398.0938,-395.5078125,-350.09765625,-992.67578125,2.9296875,278.3203125
1731718811402,-488.76953125,-309.5703125,-966.796875,-840.8203125,-887.20703125
1731718811405.9062,-691.40625,-320.80078125,-759.27734375,-1000,-1000
1731718811409.8125,-641.11328125,-367.1875,-792.48046875,-315.91796875,-169.43359375
1731718811413.7188,-340.33203125,-349.609375,-984.375,-292.96875,-223.14453125
1731718811417.625,-416.9921875,-316.40625,-1000,-890.13671875,-979.98046875
1731718811421.5312,-768.5546875,-335.44921875,-852.5390625,-1000,-1000
1731718811425.4375,-905.76171875,-364.2578125,-615.234375,6.34765625,183.10546875
1731718811429.3438,-610.83984375,-388.18359375,-849.12109375,420.8984375,504.39453125
1731718811433.25,-393.06640625,-344.7265625,-1000,-717.28515625,-850.09765625
1731718811437.1562,-752.44140625,-303.7109375,-746.58203125,-719.23828125,-823.2421875
1731718811441.0625,-965.8203125,-366.69921875,-432.6171875,231.4453125,414.55078125
1731718811444.9688,-515.625,-353.02734375,-821.77734375,222.16796875,345.21484375
1731718811448.875,-263.671875,-315.4296875,-1000,-530.2734375,-541.50390625
1731718811452.7812,-573.2421875,-307.6171875,-892.578125,-728.02734375,-782.2265625
1731718811456.6875,-794.43359375,-314.94140625,-583.984375,-302.734375,-336.42578125
1731718811460.5938,-469.7265625,-366.2109375,-859.375,-573.73046875,-629.39453125
1731718811464.5,-225.5859375,-354.4921875,-1000,-911.1328125,-1000
1731718811468.4062,-548.33984375,-314.94140625,-907.2265625,-609.86328125,-712.40234375
1731718811472.3125,-916.50390625,-328.61328125,-554.6875,-137.6953125,-103.515625
1731718811476.2188,-609.86328125,-354.4921875,-816.89453125,-670.8984375,-729.98046875
1731718811480.125,-264.16015625,-344.23828125,-1000,-904.296875,-1000
1731718811484.0312,-526.85546875,-311.03515625,-908.203125,-277.34375,-185.546875
1731718811487.9375,-979.98046875,-323.73046875,-404.78515625,668.45703125,804.19921875
1731718811491.8438,-719.7265625,-336.9140625,-623.53515625,-122.0703125,-221.19140625
1731718811495.75,-229.4921875,-302.24609375,-1000,-878.41796875,-999.51171875
1731718811499.6562,-439.453125,-292.48046875,-959.9609375,-265.625,-208.984375
1731718811503.5625,-785.64453125,-304.19921875,-783.203125,-352.5390625,-335.9375
1731718811507.4688,-634.27734375,-306.640625,-774.4140625,-985.3515625,-1000
1731718811511.375,-315.4296875,-321.2890625,-979.4921875,-836.9140625,-908.69140625
1731718811515.2812,-427.24609375,-348.6328125,-995.60546875,-68.84765625,-2.44140625
1731718811519.1875,-620.60546875,-292.96875,-951.171875,-503.41796875,-513.18359375
1731718811523.0938,-633.30078125,-286.1328125,-846.6796875,-1000,-1000
1731718811527,-479.4921875,-316.89453125,-933.59375,-724.12109375,-793.45703125
1731718811530.9062,-450.68359375,-315.91796875,-1000,93.75,249.0234375
1731718811534.8125,-597.65625,-296.38671875,-899.90234375,-141.6015625,-71.2890625
1731718811538.7188,-643.5546875,-250.9765625,-699.70703125,-963.37890625,-1000
1731718811542.625,-535.15625,-283.203125,-876.953125,-805.17578125,-822.75390625
1731718811546.5312,-594.23828125,-367.67578125,-968.75,496.09375,574.21875
1731718811550.4375,-521.484375,-277.34375,-958.0078125,-33.203125,-94.23828125
1731718811554.3438,-589.84375,-252.9296875,-937.98828125,-1000,-1000
1731718811558.25,-674.8046875,-337.890625,-872.0703125,-782.71484375,-756.8359375
1731718811562.1562,-405.76171875,-315.4296875,-972.16796875,-189.94140625,-54.6875
1731718811566.0625,-351.07421875,-333.984375,-1000,-582.03125,-548.33984375
1731718811569.9688,-626.953125,-279.78515625,-874.0234375,-956.54296875,-1000
1731718811573.875,-766.6015625,-280.2734375,-628.41796875,-512.20703125,-588.37890625
1731718811577.7812,-524.4140625,-340.8203125,-889.6484375,35.64453125,225.5859375
1731718811581.6875,-311.03515625,-245.1171875,-1000,-29.78515625,98.6328125
1731718811585.5938,-565.91796875,-331.0546875,-997.0703125,-891.6015625,-970.21484375
1731718811589.5,-850.5859375,-334.47265625,-709.9609375,-582.51953125,-532.2265625
1731718811593.4062,-801.26953125,-323.73046875,-616.2109375,751.953125,816.40625
1731718811597.3125,-332.51953125,-294.921875,-980.46875,-95.21484375,-154.296875
1731718811601.2188,-377.9296875,-247.55859375,-1000,-972.16796875,-1000
1731718811605.125,-789.0625,-312.5,-786.1328125,-768.5546875,-837.890625
1731718811609.0312,-556.640625,-293.45703125,-873.046875,-835.9375,-919.43359375
1731718811612.9375,-255.859375,-350.5859375,-1000,-901.85546875,-999.51171875
1731718811616.8438,-427.24609375,-311.03515625,-943.84765625,-603.02734375,-741.69921875
1731718811620.75,-758.7890625,-229.98046875,-614.2578125,-207.51953125,-241.2109375
1731718811624.6562,-718.75,-295.8984375,-617.1875,-306.15234375,-276.3671875
1731718811628.5625,-403.3203125,-357.421875,-969.7265625,-308.10546875,-237.3046875
1731718811632.4688,-330.078125,-320.80078125,-1000,-446.77734375,-413.57421875
1731718811636.375,-839.84375,-309.5703125,-607.91015625,354.4921875,532.71484375
1731718811640.2812,-904.78515625,-322.265625,-466.796875,259.765625,295.8984375
1731718811644.1875,-363.28125,-318.84765625,-940.4296875,-791.9921875,-913.0859375
