time,TP9,AF7,AF8,TP10,AUX
1731699722555.375,-1000,969.23828125,-1000,-1000,-1000
1731699722559.2812,-1000,969.23828125,-1000,-1000,-1000
1731699722563.1875,-1000,969.23828125,-1000,-1000,-1000
1731699722567.0938,-1000,969.23828125,-1000,-1000,-1000
1731699722571,-1000,969.23828125,-1000,-1000,-1000
1731699722574.9062,-1000,969.23828125,-1000,-1000,-1000
1731699722578.8125,-1000,969.23828125,-1000,-1000,-1000
1731699722582.7188,-1000,969.23828125,-1000,-1000,-1000
1731699722586.625,-1000,969.23828125,-1000,-1000,-1000
1731699722590.5312,-1000,969.23828125,-1000,-1000,-1000
1731699722594.4375,-1000,969.23828125,-1000,-1000,-1000
1731699722598.3438,-1000,969.23828125,-1000,-1000,-1000
1731699722602.25,-1000,969.23828125,-1000,-1000,-1000
1731699722606.1562,-1000,969.23828125,-1000,-1000,-1000
1731699722610.0625,-1000,969.23828125,-995.1171875,-1000,-1000
1731699722613.9688,-1000,969.23828125,-999.0234375,-1000,-1000
1731699722617.875,-1000,969.23828125,-988.28125,-1000,-1000
1731699722621.7812,-1000,969.23828125,-749.51171875,-1000,-1000
1731699722625.6875,-1000,969.23828125,-459.47265625,-1000,-1000
1731699722629.5938,-1000,969.23828125,-86.9140625,-1000,-1000
1731699722633.5,-1000,969.23828125,152.83203125,-1000,-1000
1731699722637.4062,-1000,969.23828125,493.65234375,-1000,-1000
1731699722641.3125,-1000,969.23828125,815.91796875,-1000,-1000
1731699722645.2188,-1000,969.23828125,557.6171875,-1000,-1000
1731699722649.125,-1000,969.23828125,565.91796875,-1000,-1000
1731699722653.0312,-1000,969.23828125,680.6640625,-1000,-1000
1731699722656.9375,-1000,969.23828125,503.90625,-1000,-1000
1731699722660.8438,-1000,969.23828125,53.22265625,-1000,-1000
1731699722664.75,-1000,969.23828125,-362.3046875,-1000,-1000
1731699722668.6562,-1000,969.23828125,-403.80859375,-1000,-1000
1731699722672.5625,-1000,969.23828125,-365.234375,-1000,-1000
1731699722676.4688,-1000,969.23828125,-872.0703125,-1000,-1000
1731699722680.375,-1000,969.23828125,-1000,-1000,-1000
1731699722684.2812,-1000,969.23828125,-965.33203125,-1000,-1000
1731699722688.1875,-1000,969.23828125,-870.1171875,-1000,-1000
1731699722692.0938,-1000,969.23828125,-905.2734375,-1000,-1000
1731699722696,-1000,969.23828125,-1000,-1000,-1000
1731699722699.9062,-1000,969.23828125,-993.65234375,-1000,-1000
1731699722703.8125,-1000,969.23828125,-752.44140625,-1000,-1000
1731699722707.7188,-1000,969.23828125,-834.47265625,-1000,-1000
1731699722711.625,-1000,969.23828125,-962.40234375,-1000,-1000
1731699722715.5312,-1000,969.23828125,-630.859375,-1000,-1000
1731699722719.4375,-1000,969.23828125,-222.16796875,-1000,-1000
1731699722723.3438,-1000,969.23828125,-64.453125,-1000,-1000
1731699722727.25,-1000,969.23828125,-258.30078125,-1000,-1000
1731699722731.1562,-1000,969.23828125,-363.28125,-1000,-1000
1731699722735.0625,-1000,969.23828125,-253.41796875,-1000,-1000
1731699722738.9688,-1000,969.23828125,213.37890625,-1000,-1000
1731699722742.875,-1000,969.23828125,-200.1953125,-1000,-1000
1731699722746.7812,-1000,969.23828125,-557.6171875,-1000,-1000
1731699722750.6875,-1000,969.23828125,-651.3671875,-1000,-1000
1731699722754.5938,-1000,969.23828125,-817.87109375,-1000,-1000
1731699722758.5,-1000,969.23828125,-949.70703125,-1000,-1000
1731699722762.4062,-1000,969.23828125,-1000,-1000,-1000
1731699722766.3125,-1000,969.7265625,-992.1875,-1000,-1000
1731699722770.2188,-1000,969.23828125,-1000,-1000,-1000
1731699722774.125,-1000,969.23828125,-1000,-1000,-1000
1731699722778.0312,-1000,969.23828125,-1000,-1000,-1000
1731699722781.9375,-1000,969.23828125,-1000,-1000,-1000
1731699722785.8438,-1000,969.23828125,-1000,-1000,-1000
1731699722789.75,-1000,969.7265625,-1000,-1000,-1000
1731699722793.6562,-1000,969.23828125,-1000,-1000,-1000
1731699722797.5625,-1000,969.23828125,-1000,-1000,-1000
1731699722801.4688,-1000,969.23828125,-1000,-1000,-1000
1731699722805.375,-1000,969.23828125,-1000,-1000,-1000
1731699722809.2812,-1000,969.23828125,-990.234375,-1000,-1000
1731699722813.1875,-1000,969.23828125,-996.58203125,-1000,-1000
1731699722817.0938,-1000,969.23828125,-1000,-1000,-1000
1731699722821,-1000,969.23828125,-504.8828125,-1000,-1000
1731699722824.9062,-1000,969.23828125,-530.76171875,-1000,-1000
1731699722828.8125,-1000,969.23828125,-1000,-1000,-1000
1731699722832.7188,-1000,969.23828125,-1000,-1000,-1000
1731699722836.625,-1000,969.23828125,-842.28515625,-1000,-1000
1731699722840.5312,-1000,969.23828125,-656.73828125,-1000,-1000
1731699722844.4375,-1000,969.23828125,-966.30859375,-1000,-1000
1731699722848.3438,-948.2421875,969.23828125,-996.58203125,-1000,-1000
1731699722852.25,-1000,969.23828125,-855.95703125,-1000,-1000
1731699722856.1562,-945.3125,969.23828125,-840.8203125,-1000,-1000
1731699722860.0625,648.4375,969.23828125,-576.171875,-1000,-1000
1731699722863.9688,310.546875,969.23828125,-635.7421875,-1000,-1000
1731699722867.875,-1000,969.23828125,-933.10546875,-1000,-1000
1731699722871.7812,-1000,969.23828125,-793.9453125,-1000,-1000
1731699722875.6875,-62.5,969.23828125,-683.59375,-1000,-1000
1731699722879.5938,999.51171875,969.23828125,147.4609375,-953.125,-1000
1731699722883.5,199.21875,969.23828125,-183.59375,-1000,-1000
1731699722887.4062,-1000,969.23828125,-1000,-916.9921875,-1000
1731699722891.3125,36.62109375,969.23828125,-911.1328125,453.61328125,-1000
1731699722895.2188,999.51171875,969.23828125,-723.6328125,999.51171875,-1000
1731699722899.125,-462.890625,969.23828125,-904.78515625,902.83203125,-1000
1731699722903.0312,-1000,969.23828125,-1000,978.515625,-1000
1731699722906.9375,-889.6484375,969.23828125,-985.83984375,969.23828125,-1000
1731699722910.8438,-652.34375,969.23828125,-1000,969.23828125,-1000
1731699722914.75,-914.55078125,969.23828125,-1000,969.23828125,-1000
1731699722918.6562,-1000,969.23828125,-1000,969.23828125,-1000
1731699722922.5625,-1000,969.23828125,-1000,969.23828125,-1000
1731699722926.4688,-609.375,969.23828125,-1000,969.23828125,-1000
1731699722930.375,-723.6328125,969.23828125,-1000,969.23828125,-1000
1731699722934.2812,-1000,969.23828125,-1000,969.23828125,-1000
1731699722938.1875,-1000,969.23828125,-1000,969.23828125,-1000
1731699722942.0938,-610.3515625,969.23828125,-1000,969.23828125,-1000
1731699722946,-269.53125,969.23828125,-1000,969.23828125,-1000
1731699722949.9062,-1000,969.23828125,-1000,969.23828125,-1000
1731699722953.8125,-1000,969.23828125,-1000,969.23828125,-1000
1731699722957.7188,-973.6328125,969.23828125,-1000,969.23828125,-1000
1731699722961.625,-1000,969.23828125,-1000,969.23828125,-1000
1731699722965.5312,-1000,969.23828125,-1000,969.23828125,-1000
1731699722969.4375,-1000,969.23828125,-1000,969.23828125,-1000
1731699722973.3438,-1000,969.23828125,-1000,969.23828125,-1000
1731699722977.25,-1000,969.23828125,-1000,969.23828125,-1000
1731699722981.1562,-1000,969.23828125,-1000,968.75,-1000
1731699722985.0625,-1000,969.23828125,-1000,969.23828125,-1000
1731699722988.9688,-1000,969.23828125,-1000,969.23828125,-1000
1731699722992.875,-1000,969.23828125,-1000,969.23828125,-1000
1731699722996.7812,-988.28125,969.23828125,-1000,969.23828125,-1000
1731699723000.6875,-953.125,969.23828125,-1000,969.23828125,-1000
1731699723004.5938,-1000,969.23828125,-1000,969.23828125,-1000
1731699723008.5,-56.640625,969.23828125,-1000,969.23828125,-1000
1731699723012.4062,999.51171875,969.23828125,-1000,969.23828125,-1000
1731699723016.3125,-88.37890625,969.23828125,-1000,969.23828125,-1000
1731699723020.2188,-1000,969.23828125,-975.09765625,969.23828125,-1000
1731699723024.125,138.671875,969.23828125,-1000,969.23828125,-1000
1731699723028.0312,999.51171875,969.23828125,-895.01953125,969.23828125,-1000
1731699723031.9375,912.59765625,969.23828125,-44.43359375,969.23828125,-1000
1731699723035.8438,962.890625,969.23828125,-509.765625,976.5625,-1000
1731699723039.75,969.23828125,969.23828125,-256.8359375,939.453125,-1000
1731699723043.6562,968.26171875,969.23828125,999.51171875,959.9609375,-1000
1731699723047.5625,968.26171875,969.23828125,957.51953125,999.51171875,-1000
1731699723051.4688,968.26171875,969.23828125,942.87109375,-255.859375,-1000
1731699723055.375,968.26171875,969.23828125,975.09765625,-1000,-1000
1731699723059.2812,968.26171875,969.23828125,969.23828125,-936.5234375,-1000
1731699723063.1875,968.26171875,969.23828125,969.23828125,-1000,-1000
1731699723067.0938,968.75,969.23828125,969.23828125,-1000,-1000
1731699723071,968.26171875,969.23828125,969.23828125,-1000,-1000
1731699723074.9062,968.26171875,969.23828125,969.23828125,-1000,-1000
1731699723078.8125,968.26171875,969.23828125,969.23828125,-1000,-1000
1731699723082.7188,968.26171875,969.23828125,969.23828125,-1000,-1000
1731699723086.625,968.26171875,969.23828125,969.23828125,-1000,-1000
1731699723090.5312,968.26171875,969.23828125,969.23828125,-1000,-1000
1731699723094.4375,968.26171875,969.23828125,969.23828125,-1000,-1000
1731699723098.3438,968.26171875,969.23828125,969.7265625,-1000,-1000
1731699723102.25,968.26171875,969.23828125,973.14453125,-1000,-1000
1731699723106.1562,968.26171875,969.23828125,905.76171875,-1000,-1000
1731699723110.0625,968.26171875,969.23828125,999.51171875,-1000,-1000
1731699723113.9688,968.26171875,969.23828125,281.73828125,-1000,-1000
1731699723117.875,968.26171875,969.23828125,-1000,-1000,-997.55859375
1731699723121.7812,968.26171875,969.23828125,-1000,-1000,-1000
1731699723125.6875,968.26171875,969.23828125,-965.8203125,-1000,-982.421875
1731699723129.5938,968.26171875,969.23828125,-1000,-1000,-1000
1731699723133.5,968.26171875,969.23828125,-1000,-1000,-979.98046875
1731699723137.4062,968.26171875,969.23828125,-1000,-1000,-424.31640625
1731699723141.3125,968.75,969.23828125,-1000,-1000,-602.5390625
1731699723145.2188,968.75,969.23828125,-1000,-1000,-1000
1731699723149.125,968.26171875,969.23828125,-1000,-961.42578125,-980.95703125
1731699723153.0312,968.26171875,969.23828125,-1000,-1000,-996.58203125
1731699723156.9375,968.75,969.23828125,-1000,-992.1875,-1000
1731699723160.8438,968.26171875,969.23828125,-1000,337.40234375,-1000
1731699723164.75,968.26171875,969.23828125,-1000,999.51171875,-1000
1731699723168.6562,968.26171875,969.23828125,-1000,902.83203125,-992.67578125
1731699723172.5625,968.26171875,969.23828125,-966.30859375,975.5859375,-1000
1731699723176.4688,968.75,969.23828125,-1000,969.23828125,-914.0625
1731699723180.375,968.26171875,969.23828125,-901.3671875,969.23828125,-1000
1731699723184.2812,968.26171875,969.23828125,217.7734375,969.23828125,-552.24609375
1731699723188.1875,974.12109375,969.23828125,944.3359375,969.23828125,51.7578125
1731699723192.0938,898.92578125,969.23828125,927.24609375,968.75,-839.35546875
1731699723196,999.51171875,969.23828125,968.26171875,969.23828125,-1000
1731699723199.9062,289.55078125,969.23828125,967.7734375,969.23828125,-397.4609375
1731699723203.8125,-1000,970.703125,971.19140625,969.23828125,932.6171875
1731699723207.7188,-1000,960.44921875,963.8671875,969.23828125,992.67578125
1731699723211.625,-964.84375,920.8984375,916.50390625,969.23828125,922.36328125
1731699723215.5312,-1000,999.51171875,999.51171875,969.23828125,981.4453125
1731699723219.4375,-1000,37.109375,91.30859375,969.23828125,968.26171875
1731699723223.3438,-1000,-1000,-1000,969.23828125,968.26171875
1731699723227.25,-1000,-925.78125,-971.6796875,969.23828125,968.26171875
1731699723231.1562,-1000,-1000,-979.98046875,969.23828125,968.26171875
1731699723235.0625,-1000,-838.8671875,-1000,969.23828125,968.26171875
1731699723238.9688,-1000,-416.015625,-1000,969.7265625,968.26171875
1731699723242.875,-1000,-862.3046875,-1000,906.25,968.26171875
1731699723246.7812,-1000,-1000,-1000,999.51171875,968.26171875
1731699723250.6875,-1000,-226.5625,-972.16796875,247.0703125,968.26171875
1731699723254.5938,-1000,999.51171875,-1000,-1000,968.26171875
1731699723258.5,-1000,561.5234375,-603.515625,-71.77734375,968.26171875
1731699723262.4062,-1000,-9.27734375,11.71875,202.63671875,968.26171875
1731699723266.3125,-1000,472.65625,396.97265625,-1000,968.26171875
1731699723270.2188,-1000,999.51171875,552.734375,-999.51171875,968.26171875
1731699723274.125,-1000,802.24609375,310.05859375,-972.65625,968.26171875
1731699723278.0312,-1000,-737.3046875,543.45703125,-1000,968.26171875
1731699723281.9375,-1000,-497.55859375,972.65625,-1000,968.26171875
1731699723285.8438,-1000,900.87890625,664.0625,-1000,968.26171875
1731699723289.75,-1000,988.76953125,52.734375,-1000,968.26171875
1731699723293.6562,-1000,928.7109375,-224.12109375,-1000,968.26171875
1731699723297.5625,-1000,978.02734375,-317.87109375,-1000,968.26171875
1731699723301.4688,-1000,969.23828125,-318.359375,-1000,968.26171875
1731699723305.375,-1000,969.23828125,-1000,-1000,968.26171875
1731699723309.2812,-1000,969.23828125,-466.30859375,-1000,968.75
1731699723313.1875,-965.8203125,969.23828125,585.9375,-1000,969.23828125
1731699723317.0938,-1000,969.23828125,-359.375,-1000,905.76171875
1731699723321,-1000,969.23828125,-1000,-1000,999.51171875
1731699723324.9062,276.3671875,969.23828125,-960.44921875,-1000,187.98828125
1731699723328.8125,999.51171875,969.23828125,-936.5234375,-1000,-1000
1731699723332.7188,906.25,969.23828125,-983.3984375,-1000,-983.88671875
1731699723336.625,971.6796875,969.23828125,-1000,-1000,-973.14453125
1731699723340.5312,968.75,969.23828125,-996.58203125,-1000,-1000
1731699723344.4375,968.75,969.23828125,-1000,-1000,-1000
1731699723348.3438,968.26171875,969.23828125,-1000,-1000,-1000
1731699723352.25,968.26171875,969.23828125,-1000,-1000,-1000
1731699723356.1562,968.26171875,969.23828125,-1000,-1000,-1000
1731699723360.0625,968.26171875,969.23828125,-1000,-1000,-1000
1731699723363.9688,968.75,969.23828125,-1000,-1000,-1000
1731699723367.875,968.75,969.23828125,-1000,-1000,-1000
1731699723371.7812,968.26171875,969.23828125,-1000,-1000,-1000
1731699723375.6875,981.93359375,982.91015625,-1000,-1000,-1000
1731699723379.5938,914.0625,915.0390625,-1000,-1000,-945.80078125
1731699723383.5,999.51171875,999.51171875,-1000,-1000,-1000
1731699723387.4062,830.078125,831.0546875,-1000,-1000,-861.81640625
1731699723391.3125,-575.68359375,-575.68359375,-1000,-1000,543.9453125
1731699723395.2188,-1000,-1000,-1000,-1000,999.51171875
1731699723399.125,-930.17578125,-933.10546875,-1000,-1000,900.87890625
1731699723403.0312,-1000,-1000,-1000,-1000,980.46875
1731699723406.9375,-1000,-1000,-1000,-1000,968.75
1731699723410.8438,-954.1015625,-1000,-1000,-1000,968.26171875
1731699723414.75,-934.08203125,-1000,-1000,-1000,968.26171875
1731699723418.6562,-1000,-1000,-980.95703125,-1000,968.26171875
1731699723422.5625,-975.5859375,-1000,-1000,-1000,968.26171875
1731699723426.4688,364.2578125,-1000,-768.5546875,-1000,968.26171875
1731699723430.375,999.51171875,-1000,-331.54296875,-988.76953125,968.26171875
1731699723434.2812,-143.06640625,-1000,-622.0703125,-986.328125,968.26171875
1731699723438.1875,-1000,-1000,-1000,-1000,968.26171875
1731699723442.0938,-25.390625,-1000,-113.28125,-310.05859375,968.26171875
1731699723446,263.671875,-1000,999.51171875,-440.91796875,968.26171875
1731699723449.9062,-1000,-1000,388.671875,-1000,968.26171875
1731699723453.8125,-1000,-1000,-984.375,-1000,968.26171875
1731699723457.7188,-966.30859375,-1000,-1000,-516.6015625,968.26171875
1731699723461.625,-1000,-1000,-953.61328125,999.51171875,968.26171875
1731699723465.5312,-1000,-1000,-1000,653.3203125,968.26171875
1731699723469.4375,-1000,-1000,-1000,-876.953125,968.26171875
1731699723473.3438,-1000,-1000,-1000,-1000,968.26171875
1731699723477.25,-1000,-1000,-1000,188.4765625,968.26171875
1731699723481.1562,-988.28125,-990.234375,-1000,999.51171875,968.26171875
1731699723485.0625,-953.125,-953.61328125,-935.546875,-197.265625,968.26171875
1731699723488.9688,-1000,-1000,-1000,-713.8671875,968.26171875
1731699723492.875,-53.22265625,-110.3515625,-367.67578125,827.1484375,968.26171875
1731699723496.7812,999.51171875,999.51171875,999.51171875,999.51171875,968.26171875
1731699723500.6875,-69.82421875,188.4765625,268.5546875,76.171875,968.26171875
1731699723504.5938,-1000,-1000,-1000,-902.34375,968.26171875
1731699723508.5,-116.69921875,-17.08984375,3.90625,482.91015625,968.26171875
1731699723512.4062,999.51171875,999.51171875,999.51171875,999.51171875,979.4921875
1731699723516.3125,541.015625,909.1796875,930.6640625,546.38671875,895.01953125
1731699723520.2188,-982.421875,-267.578125,747.55859375,-1000,999.51171875
1731699723524.125,138.671875,276.85546875,861.328125,-200.1953125,438.96484375
1731699723528.0312,999.51171875,999.51171875,999.51171875,999.51171875,-942.87109375
1731699723531.9375,889.16015625,899.4140625,954.1015625,999.51171875,-1000
1731699723535.8438,968.75,977.05078125,973.14453125,-379.8828125,268.5546875
1731699723539.75,968.75,969.23828125,969.23828125,-453.125,341.30859375
1731699723543.6562,968.26171875,969.23828125,969.23828125,994.62890625,-1000
1731699723547.5625,968.26171875,969.23828125,969.23828125,999.51171875,-1000
1731699723551.4688,968.26171875,969.23828125,969.23828125,122.0703125,-96.6796875
1731699723555.375,968.26171875,969.23828125,969.23828125,-992.1875,399.90234375
1731699723559.2812,968.26171875,969.23828125,969.23828125,388.18359375,-928.7109375
1731699723563.1875,968.26171875,969.23828125,969.23828125,999.51171875,-1000
1731699723567.0938,968.26171875,969.23828125,969.23828125,156.73828125,-579.58984375
1731699723571,968.26171875,969.23828125,969.23828125,-1000,683.10546875
1731699723574.9062,968.26171875,969.23828125,969.7265625,-62.98828125,-352.05078125
1731699723578.8125,968.26171875,969.23828125,969.23828125,999.51171875,-1000
1731699723582.7188,968.26171875,969.23828125,969.23828125,559.08203125,-790.52734375
1731699723586.625,970.703125,969.23828125,969.23828125,-1000,737.3046875
1731699723590.5312,956.0546875,969.7265625,970.703125,-650.390625,373.53515625
1731699723594.4375,915.52734375,904.78515625,895.01953125,910.15625,-1000
1731699723598.3438,999.51171875,999.51171875,999.51171875,999.51171875,-1000
1731699723602.25,-138.18359375,50.29296875,85.44921875,-332.51953125,269.53125
1731699723606.1562,-587.40234375,-311.03515625,-541.015625,-1000,999.51171875
1731699723610.0625,999.51171875,994.140625,849.609375,373.046875,-80.078125
1731699723613.9688,590.8203125,999.51171875,999.51171875,999.51171875,118.65234375
1731699723617.875,-934.5703125,83.0078125,163.0859375,167.96875,999.51171875
1731699723621.7812,-1000,-1000,-1000,-1000,923.828125
1731699723625.6875,-942.3828125,-974.12109375,-623.046875,-264.16015625,965.8203125
1731699723629.5938,-1000,-978.515625,-456.54296875,999.51171875,969.23828125
1731699723633.5,-1000,-1000,-1000,228.515625,968.26171875
1731699723637.4062,-1000,-1000,-1000,-1000,968.26171875
1731699723641.3125,-1000,-1000,-951.66015625,-271.484375,968.26171875
1731699723645.2188,-1000,-1000,-956.54296875,999.51171875,968.26171875
1731699723649.125,-1000,-1000,-967.28515625,605.46875,968.26171875
1731699723653.0312,-1000,-1000,-1000,-1000,968.26171875
1731699723656.9375,-1000,-1000,-996.58203125,-603.02734375,968.26171875
1731699723660.8438,-1000,-1000,309.08203125,926.7578125,968.26171875
1731699723664.75,-1000,-989.2578125,892.08984375,999.51171875,968.26171875
1731699723668.6562,-1000,-954.1015625,-473.6328125,-369.62890625,968.26171875
1731699723672.5625,-1000,-1000,-1000,-813.96484375,968.26171875
1731699723676.4688,-1000,-95.703125,198.2421875,757.32421875,968.26171875
1731699723680.375,-1000,999.51171875,999.51171875,999.51171875,969.7265625
1731699723684.2812,-937.5,162.59765625,203.61328125,188.96484375,904.78515625
1731699723688.1875,-1000,-1000,-1000,-1000,999.51171875
1731699723692.0938,-291.015625,-203.125,-498.53515625,-273.92578125,276.85546875
1731699723696,999.51171875,999.51171875,999.51171875,999.51171875,-1000
1731699723699.9062,314.94140625,796.875,515.13671875,364.2578125,-416.9921875
1731699723703.8125,-1000,-602.5390625,-1000,-1000,999.51171875
1731699723707.7188,-20.99609375,191.89453125,-797.36328125,-273.92578125,202.63671875
1731699723711.625,999.51171875,999.51171875,710.9375,999.51171875,-1000
1731699723715.5312,999.51171875,892.578125,999.51171875,866.69921875,-1000
1731699723719.4375,3.41796875,973.6328125,-526.85546875,-740.72265625,160.15625
1731699723723.3438,92.28515625,969.7265625,-838.37890625,-325.68359375,292.48046875
1731699723727.25,999.51171875,969.23828125,640.625,999.51171875,-1000
1731699723731.1562,925.29296875,969.23828125,999.51171875,999.51171875,-1000
1731699723735.0625,964.84375,969.23828125,132.8125,-70.3125,-170.41015625
1731699723738.9688,968.75,969.23828125,-1000,-598.6328125,192.87109375
1731699723742.875,968.26171875,969.23828125,-160.15625,869.140625,-996.58203125
1731699723746.7812,968.26171875,968.75,999.51171875,999.51171875,-1000
1731699723750.6875,968.26171875,969.23828125,337.890625,104.00390625,-657.2265625
1731699723754.5938,968.26171875,969.23828125,-1000,-896.97265625,107.91015625
1731699723758.5,968.26171875,969.23828125,-375.48828125,498.53515625,-803.22265625
1731699723762.4062,968.26171875,969.23828125,999.51171875,999.51171875,-1000
1731699723766.3125,968.26171875,969.23828125,666.015625,786.62109375,-1000
1731699723770.2188,968.75,969.23828125,-890.625,-661.62109375,248.046875
1731699723774.125,967.28515625,969.23828125,-911.1328125,-20.5078125,116.69921875
1731699723778.0312,906.73828125,969.23828125,609.86328125,999.51171875,-1000
1731699723781.9375,999.51171875,969.23828125,494.140625,999.51171875,-1000
1731699723785.8438,25.390625,969.23828125,-840.8203125,49.31640625,169.43359375
1731699723789.75,-301.7578125,975.09765625,-1000,-214.35546875,405.2734375
1731699723793.6562,999.51171875,886.71875,-806.640625,998.046875,-1000
1731699723797.5625,999.51171875,999.51171875,-892.578125,999.51171875,-1000
1731699723801.4688,134.765625,167.96875,-1000,296.875,-185.05859375
1731699723805.375,-1000,-541.50390625,-991.69921875,-168.45703125,999.51171875
1731699723809.2812,152.34375,844.23828125,-1000,999.51171875,26.85546875
1731699723813.1875,660.64453125,999.51171875,-1000,999.51171875,-448.2421875
1731699723817.0938,-970.703125,238.28125,-1000,927.734375,999.51171875
1731699723821,-1000,-1000,-1000,975.5859375,999.51171875
1731699723824.9062,-944.3359375,-342.28515625,-1000,969.23828125,923.33984375
1731699723828.8125,-1000,999.51171875,-1000,969.23828125,979.00390625
1731699723832.7188,-1000,-25.87890625,-1000,969.23828125,968.26171875
1731699723836.625,-1000,-1000,-1000,969.23828125,968.26171875
1731699723840.5312,-1000,-949.70703125,-1000,969.23828125,968.26171875
1731699723844.4375,-1000,-987.3046875,-1000,969.23828125,968.26171875
1731699723848.3438,-1000,-1000,-1000,969.23828125,968.26171875
1731699723852.25,-1000,-1000,-1000,969.23828125,968.26171875
1731699723856.1562,-1000,-1000,-1000,969.23828125,968.26171875
1731699723860.0625,-1000,-1000,-1000,969.23828125,968.26171875
1731699723863.9688,-1000,-1000,-1000,969.23828125,968.26171875
1731699723867.875,-1000,-933.10546875,-1000,969.23828125,968.26171875
1731699723871.7812,-1000,-1000,-1000,969.23828125,968.26171875
1731699723875.6875,-1000,-81.0546875,-1000,969.23828125,968.26171875
1731699723879.5938,-1000,315.91796875,-1000,969.23828125,968.26171875
1731699723883.5,-1000,-999.0234375,-1000,969.23828125,968.26171875
1731699723887.4062,-1000,-1000,-1000,969.23828125,968.26171875
1731699723891.3125,-1000,-803.7109375,-1000,969.23828125,968.26171875
1731699723895.2188,-1000,769.04296875,-1000,969.23828125,968.26171875
1731699723899.125,-1000,347.65625,-1000,969.23828125,968.26171875
1731699723903.0312,-1000,-1000,-1000,968.75,968.26171875
1731699723906.9375,-1000,-424.31640625,-1000,969.23828125,968.26171875
1731699723910.8438,-1000,966.796875,-1000,969.23828125,968.26171875
1731699723914.75,-1000,988.28125,-1000,968.75,968.26171875
1731699723918.6562,-1000,922.8515625,-1000,969.23828125,968.26171875
1731699723922.5625,-1000,982.421875,-1000,969.23828125,968.26171875
1731699723926.4688,-1000,969.23828125,-1000,969.23828125,968.75
1731699723930.375,-1000,969.23828125,-1000,969.23828125,968.26171875
1731699723934.2812,-1000,969.23828125,-1000,969.23828125,968.26171875
1731699723938.1875,-1000,968.75,-1000,969.23828125,968.26171875
1731699723942.0938,-1000,969.23828125,-1000,969.23828125,968.26171875
1731699723946,-1000,969.23828125,-1000,969.23828125,968.75
1731699723949.9062,-1000,969.23828125,-1000,969.23828125,964.35546875
1731699723953.8125,-1000,969.23828125,-1000,968.75,917.96875
1731699723957.7188,-1000,969.23828125,-1000,969.23828125,999.51171875
1731699723961.625,-1000,969.23828125,-1000,969.23828125,68.359375
1731699723965.5312,-1000,969.23828125,-1000,969.23828125,-170.8984375
1731699723969.4375,-1000,969.23828125,-1000,969.23828125,999.51171875
1731699723973.3438,-1000,968.75,-1000,969.23828125,999.51171875
1731699723977.25,-1000,969.23828125,-1000,968.75,-100.5859375
1731699723981.1562,-1000,969.23828125,-1000,969.23828125,-1000
1731699723985.0625,-937.01171875,969.23828125,-1000,969.23828125,-17.578125
1731699723988.9688,-1000,969.23828125,-1000,969.23828125,999.51171875
1731699723992.875,-85.9375,969.23828125,-1000,969.23828125,192.3828125
1731699723996.7812,273.4375,969.23828125,-1000,969.23828125,-1000
1731699724000.6875,-1000,969.23828125,-997.0703125,969.23828125,-340.8203125
1731699724004.5938,-1000,969.23828125,-1000,969.23828125,999.51171875
1731699724008.5,-34.66796875,969.23828125,-979.98046875,969.23828125,-134.27734375
1731699724012.4062,999.51171875,969.23828125,-899.4140625,969.23828125,-1000
1731699724016.3125,-82.03125,969.23828125,-955.078125,969.23828125,-1000
1731699724020.2188,-1000,969.23828125,-1000,969.23828125,445.3125
1731699724024.125,-795.41015625,969.23828125,-1000,969.23828125,434.5703125
1731699724028.0312,554.19921875,969.23828125,-812.98828125,969.23828125,-1000
1731699724031.9375,-194.3359375,969.23828125,-769.04296875,969.23828125,-1000
1731699724035.8438,-1000,969.7265625,-980.95703125,969.23828125,61.03515625
1731699724039.75,-1000,969.23828125,-1000,969.23828125,429.19921875
1731699724043.6562,-233.3984375,969.23828125,-602.05078125,969.23828125,-1000
1731699724047.5625,-467.28515625,969.23828125,-396.97265625,968.75,-1000
1731699724051.4688,-1000,969.23828125,-958.984375,969.23828125,-955.56640625
1731699724055.375,-1000,969.23828125,-1000,969.23828125,-1000
1731699724059.2812,-136.71875,969.23828125,-715.33203125,969.23828125,-1000
1731699724063.1875,-81.54296875,969.23828125,-109.375,969.23828125,-1000
1731699724067.0938,-1000,969.23828125,-503.41796875,969.23828125,-1000
1731699724071,-1000,969.23828125,-1000,969.23828125,-1000
1731699724074.9062,-283.69140625,969.23828125,-683.10546875,969.23828125,-1000
1731699724078.8125,158.69140625,969.23828125,625.9765625,969.23828125,-1000
1731699724082.7188,-983.3984375,969.23828125,916.015625,969.23828125,-1000
1731699724086.625,-1000,969.23828125,-491.2109375,969.23828125,-1000
1731699724090.5312,-740.72265625,969.23828125,-745.1171875,969.23828125,-1000
1731699724094.4375,814.453125,969.23828125,661.1328125,969.23828125,-1000
1731699724098.3438,91.30859375,969.23828125,999.51171875,969.23828125,-1000
1731699724102.25,-1000,969.23828125,272.4609375,969.23828125,-1000
1731699724106.1562,-1000,969.23828125,-414.0625,969.23828125,-1000
1731699724110.0625,197.75390625,969.23828125,580.56640625,969.23828125,-1000
1731699724113.9688,785.15625,969.23828125,999.51171875,968.75,-1000
1731699724117.875,-797.8515625,969.23828125,748.046875,969.23828125,-1000
1731699724121.7812,-1000,969.23828125,510.7421875,969.23828125,-1000
1731699724125.6875,-119.140625,969.23828125,887.6953125,969.23828125,-1000
1731699724129.5938,999.51171875,969.23828125,999.51171875,969.23828125,-1000
1731699724133.5,219.7265625,969.23828125,948.2421875,969.23828125,-1000
1731699724137.4062,-1000,969.23828125,973.14453125,969.7265625,-1000
1731699724141.3125,-254.39453125,969.23828125,969.23828125,965.8203125,-1000
1731699724145.2188,999.51171875,969.23828125,969.23828125,910.64453125,-1000
1731699724149.125,869.62890625,969.23828125,969.23828125,999.51171875,-1000
1731699724153.0312,-741.69921875,969.23828125,969.23828125,-9.765625,-1000
1731699724156.9375,-320.3125,969.23828125,969.23828125,-323.73046875,-1000
1731699724160.8438,999.51171875,969.23828125,969.23828125,999.51171875,-1000
1731699724164.75,999.51171875,968.75,969.23828125,999.51171875,-1000
1731699724168.6562,22.4609375,969.23828125,969.23828125,-102.5390625,-1000
1731699724172.5625,-284.66796875,969.23828125,969.23828125,-1000,-1000
1731699724176.4688,999.51171875,969.23828125,969.23828125,-951.171875,-1000
1731699724180.375,979.4921875,969.23828125,969.23828125,-991.69921875,-1000
1731699724184.2812,934.5703125,969.23828125,969.23828125,-1000,-1000
1731699724188.1875,975.09765625,969.23828125,969.23828125,-1000,-1000
1731699724192.0938,968.26171875,969.23828125,968.26171875,-1000,-1000
1731699724196,968.26171875,969.23828125,969.23828125,-1000,-1000
1731699724199.9062,968.26171875,969.23828125,974.609375,-1000,-1000
1731699724203.8125,968.26171875,969.23828125,915.52734375,-1000,-1000
1731699724207.7188,968.26171875,969.23828125,933.10546875,-1000,-1000
1731699724211.625,968.26171875,969.23828125,979.4921875,-1000,-1000
1731699724215.5312,968.26171875,969.23828125,965.33203125,-1000,-1000
1731699724219.4375,968.26171875,969.23828125,970.21484375,-1000,-1000
1731699724223.3438,968.26171875,969.23828125,969.23828125,-1000,-1000
1731699724227.25,968.26171875,969.23828125,969.23828125,-1000,-1000
1731699724231.1562,968.26171875,969.23828125,969.23828125,-1000,-1000
1731699724235.0625,968.75,969.23828125,969.23828125,-1000,-1000
1731699724238.9688,968.75,969.23828125,969.23828125,-1000,-1000
1731699724242.875,968.26171875,969.23828125,969.23828125,-1000,-1000
1731699724246.7812,968.26171875,969.23828125,969.23828125,-1000,-1000
1731699724250.6875,968.26171875,969.23828125,969.23828125,-1000,-1000
1731699724254.5938,968.26171875,969.23828125,969.23828125,-1000,-1000
1731699724258.5,968.26171875,969.23828125,966.796875,-1000,-993.1640625
1731699724262.4062,968.26171875,969.23828125,966.796875,-1000,-961.9140625
1731699724266.3125,968.26171875,969.23828125,987.79296875,-1000,-1000
1731699724270.2188,968.26171875,969.23828125,837.40234375,-1000,-61.5234375
1731699724274.125,968.26171875,969.23828125,862.79296875,-1000,-21.484375
1731699724278.0312,968.75,969.23828125,994.62890625,-1000,-1000
1731699724281.9375,968.26171875,969.23828125,961.42578125,-1000,-1000
1731699724285.8438,968.26171875,969.23828125,970.21484375,-1000,-114.74609375
1731699724289.75,968.26171875,969.23828125,973.6328125,-1000,173.33984375
1731699724293.6562,968.26171875,969.23828125,948.73046875,-1000,-1000
1731699724297.5625,968.26171875,969.23828125,999.51171875,-1000,-1000
1731699724301.4688,968.26171875,969.23828125,851.07421875,-1000,-204.1015625
1731699724305.375,981.93359375,969.23828125,678.22265625,-1000,430.17578125
1731699724309.2812,901.85546875,969.23828125,913.0859375,-1000,-881.8359375
1731699724313.1875,999.51171875,969.23828125,999.51171875,-1000,-1000
1731699724317.0938,717.7734375,969.23828125,929.6875,-1000,-556.640625
1731699724321,-79.1015625,969.23828125,-422.36328125,-1000,894.53125
1731699724324.9062,769.53125,969.23828125,-26.85546875,-1000,-94.7265625
1731699724328.8125,999.51171875,969.23828125,999.51171875,-1000,-1000
1731699724332.7188,999.51171875,968.75,999.51171875,-1000,-937.5