time,TP9,AF7,AF8,TP10,AUX
1731725438655,-22.4609375,-488.76953125,-157.2265625,-130.37109375,NaN
1731725438658.9062,-234.375,-832.03125,-172.36328125,-102.5390625,NaN
1731725438662.8125,-225.09765625,-661.1328125,-163.0859375,-149.90234375,NaN
1731725438666.7188,-21.484375,-409.66796875,-163.0859375,-202.1484375,NaN
1731725438670.625,-4.8828125,-555.6640625,-160.15625,-167.96875,NaN
1731725438674.5312,-209.9609375,-1000,-169.921875,-107.421875,NaN
1731725438678.4375,-244.62890625,-935.05859375,-160.15625,-143.5546875,NaN
1731725438682.3438,-75.68359375,-433.59375,-131.34765625,-216.796875,NaN
1731725438686.25,31.25,-642.578125,-159.66796875,-187.5,NaN
1731725438690.1562,-100.09765625,-894.53125,-149.90234375,-101.07421875,NaN
1731725438694.0625,-262.20703125,-562.98828125,-104.98046875,-126.46484375,NaN
1731725438697.9688,-107.421875,-835.44921875,-129.8828125,-166.015625,NaN
1731725438701.875,83.0078125,-1000,-128.90625,-161.62109375,NaN
1731725438705.7812,-53.22265625,-535.64453125,-86.9140625,-105.95703125,NaN
1731725438709.6875,-237.79296875,-449.70703125,-93.75,-85.9375,NaN
1731725438713.5938,-173.33984375,-776.85546875,-99.609375,-147.94921875,NaN
1731725438717.5,27.83203125,-824.70703125,-93.75,-162.59765625,NaN
1731725438721.4062,13.671875,-937.01171875,-96.19140625,-113.76953125,NaN
1731725438725.3125,-185.05859375,-913.57421875,-73.2421875,-84.47265625,NaN
1731725438729.2188,-173.33984375,-844.7265625,-90.33203125,-117.67578125,NaN
1731725438733.125,6.34765625,-1000,-120.60546875,-150.87890625,NaN
1731725438737.0312,19.04296875,-771.97265625,-87.890625,-143.06640625,NaN
1731725438740.9375,-136.71875,-485.3515625,-76.171875,-79.1015625,NaN
1731725438744.8438,-183.59375,-761.71875,-96.19140625,-90.8203125,NaN
1731725438748.75,-37.109375,-951.66015625,-91.30859375,-133.7890625,NaN
1731725438752.6562,50.78125,-785.64453125,-77.1484375,-128.90625,NaN
1731725438756.5625,-105.95703125,-719.23828125,-66.89453125,-91.796875,NaN
1731725438760.4688,-226.07421875,-809.5703125,-82.51953125,-70.3125,NaN
1731725438764.375,-67.3828125,-928.22265625,-94.23828125,-143.5546875,NaN
1731725438768.2812,100.5859375,-951.66015625,-83.0078125,-166.50390625,NaN
1731725438772.1875,-32.2265625,-1000,-71.77734375,-104.98046875,NaN
1731725438776.0938,-214.84375,-983.88671875,-96.19140625,-67.3828125,NaN
1731725438780,-146.97265625,-1000,-108.88671875,-117.1875,NaN
1731725438783.9062,35.64453125,-830.56640625,-61.5234375,-176.7578125,NaN
1731725438787.8125,42.48046875,-638.18359375,-62.01171875,-101.5625,NaN
1731725438791.7188,-121.09375,-860.83984375,-73.73046875,-41.50390625,NaN
1731725438795.625,-121.58203125,-948.73046875,-77.63671875,-92.28515625,NaN
1731725438799.5312,27.34375,-808.59375,-75.1953125,-121.09375,NaN
1731725438803.4375,63.96484375,-707.03125,-79.1015625,-111.328125,NaN
1731725438807.3438,-103.515625,-828.61328125,-92.28515625,-74.70703125,NaN
1731725438811.25,-210.44921875,-944.82421875,-99.12109375,-91.30859375,NaN
1731725438815.1562,-55.17578125,-994.140625,-110.3515625,-147.94921875,NaN
1731725438819.0625,110.83984375,-986.81640625,-109.86328125,-122.55859375,NaN
1731725438822.9688,-17.08984375,-1000,-139.16015625,-16.6015625,NaN
1731725438826.875,-163.57421875,-924.8046875,-134.27734375,-34.1796875,NaN
1731725438830.7812,-95.21484375,-574.70703125,-116.2109375,-156.73828125,NaN
1731725438834.6875,49.31640625,-703.61328125,-138.671875,-164.0625,NaN
1731725438838.5938,-17.578125,-713.37890625,-123.53515625,-102.05078125,NaN
1731725438842.5,-219.23828125,-452.63671875,-119.62890625,-71.77734375,NaN
1731725438846.4062,-170.8984375,-511.71875,-125.48828125,-129.8828125,NaN
1731725438850.3125,10.25390625,-747.0703125,-143.06640625,-193.359375,NaN
1731725438854.2188,-24.90234375,-683.59375,-157.71484375,-171.38671875,NaN
1731725438858.125,-254.8828125,-369.140625,-174.8046875,-107.421875,NaN
1731725438862.0312,-288.0859375,-785.15625,-201.66015625,-166.015625,NaN
1731725438865.9375,-78.61328125,-1000,-233.3984375,-238.28125,NaN
1731725438869.8438,-8.7890625,-867.1875,-211.9140625,-224.609375,NaN
1731725438873.75,-227.5390625,-390.625,-162.59765625,-190.91796875,NaN
1731725438877.6562,-302.24609375,-277.83203125,-196.77734375,-191.89453125,NaN
1731725438881.5625,-140.13671875,-754.39453125,-219.23828125,-241.2109375,NaN
1731725438885.4688,-10.25390625,-681.15234375,-196.2890625,-255.859375,NaN
1731725438889.375,-127.44140625,-199.21875,-177.734375,-173.828125,NaN
1731725438893.2812,-316.89453125,-354.98046875,-174.31640625,-136.71875,NaN
1731725438897.1875,-220.703125,-694.3359375,-181.15234375,-216.30859375,NaN
1731725438901.0938,-19.04296875,-629.39453125,-177.734375,-242.1875,NaN
1731725438905,-69.3359375,-420.41015625,-163.57421875,-166.9921875,NaN
1731725438908.9062,-259.765625,-694.3359375,-185.546875,-131.8359375,NaN
1731725438912.8125,-232.421875,-1000,-205.078125,-185.546875,NaN
1731725438916.7188,-55.6640625,-854.4921875,-162.109375,-237.79296875,NaN
1731725438920.625,-49.31640625,-391.11328125,-135.7421875,-216.796875,NaN
1731725438924.5312,-225.09765625,-450.1953125,-153.3203125,-152.83203125,NaN
1731725438928.4375,-256.8359375,-876.953125,-170.41015625,-162.59765625,NaN
1731725438932.3438,-88.37890625,-756.8359375,-164.0625,-238.28125,NaN
1731725438936.25,6.34765625,-494.62890625,-141.11328125,-209.9609375,NaN
1731725438940.1562,-93.75,-622.55859375,-141.6015625,-109.375,NaN
1731725438944.0625,-238.28125,-1000,-158.203125,-109.375,NaN
1731725438947.9688,-145.99609375,-809.08203125,-148.92578125,-205.56640625,NaN
1731725438951.875,25.390625,-511.71875,-150.87890625,-195.80078125,NaN
1731725438955.7812,-67.3828125,-818.84765625,-187.98828125,-81.0546875,NaN
1731725438959.6875,-212.40234375,-925.78125,-184.5703125,-98.14453125,NaN
1731725438963.5938,-151.85546875,-721.19140625,-149.4140625,-208.984375,NaN
1731725438967.5,36.62109375,-584.47265625,-153.3203125,-198.73046875,NaN
1731725438971.4062,3.41796875,-684.5703125,-166.50390625,-129.39453125,NaN
1731725438975.3125,-174.31640625,-769.04296875,-171.38671875,-87.40234375,NaN
1731725438979.2188,-155.76171875,-533.69140625,-164.55078125,-115.234375,NaN
1731725438983.125,12.6953125,-732.421875,-175.29296875,-177.734375,NaN
1731725438987.0312,48.33984375,-948.73046875,-173.828125,-134.27734375,NaN
1731725438990.9375,-116.69921875,-748.046875,-161.1328125,-50.78125,NaN
1731725438994.8438,-160.64453125,-811.5234375,-161.1328125,-81.0546875,NaN
1731725438998.75,1.46484375,-949.21875,-167.96875,-152.34375,NaN
1731725439002.6562,86.9140625,-993.1640625,-176.26953125,-145.99609375,NaN
1731725439006.5625,-72.75390625,-919.43359375,-156.73828125,-91.30859375,NaN
1731725439010.4688,-221.6796875,-777.83203125,-161.1328125,-86.42578125,NaN
1731725439014.375,-42.96875,-818.359375,-169.43359375,-119.140625,NaN
1731725439018.2812,116.2109375,-901.3671875,-171.875,-119.140625,NaN
1731725439022.1875,-54.19921875,-591.796875,-154.296875,-109.86328125,NaN
1731725439026.0938,-203.61328125,-294.43359375,-164.0625,-92.28515625,NaN
1731725439030,-146.97265625,-687.5,-204.1015625,-126.46484375,NaN
1731725439033.9062,39.55078125,-836.9140625,-204.1015625,-164.0625,NaN
1731725439037.8125,36.1328125,-475.5859375,-191.40625,-114.2578125,NaN
1731725439041.7188,-151.85546875,-714.35546875,-198.73046875,-52.734375,NaN
1731725439045.625,-149.90234375,-991.69921875,-215.8203125,-99.609375,NaN
1731725439049.5312,11.71875,-997.0703125,-202.1484375,-178.22265625,NaN
1731725439053.4375,36.1328125,-738.28125,-155.76171875,-150.87890625,NaN
1731725439057.3438,-83.49609375,-205.078125,-152.34375,-57.6171875,NaN
1731725439061.25,-143.5546875,-612.79296875,-204.58984375,-41.9921875,NaN
1731725439065.1562,-21.484375,-854.00390625,-202.1484375,-110.83984375,NaN
1731725439069.0625,93.26171875,-434.5703125,-172.8515625,-136.23046875,NaN
1731725439072.9688,-15.625,-416.015625,-182.12890625,-52.24609375,NaN
1731725439076.875,-166.9921875,-455.078125,-173.33984375,-38.57421875,NaN
1731725439080.7812,-89.84375,-455.078125,-184.5703125,-104.4921875,NaN
1731725439084.6875,74.21875,-315.4296875,-182.12890625,-136.23046875,NaN
1731725439088.5938,48.33984375,-252.44140625,-171.38671875,-77.63671875,NaN
1731725439092.5,-105.46875,-491.2109375,-178.7109375,10.25390625,NaN
1731725439096.4062,-134.765625,-788.57421875,-208.49609375,-71.2890625,NaN
1731725439100.3125,34.66796875,-886.71875,-229.00390625,-165.0390625,NaN
1731725439104.2188,44.43359375,-819.82421875,-215.33203125,-94.23828125,NaN
1731725439108.125,-90.33203125,-951.66015625,-245.60546875,-5.37109375,NaN
1731725439112.0312,-136.23046875,-819.82421875,-225.09765625,-76.66015625,NaN
1731725439115.9375,-48.828125,-205.078125,-180.6640625,-147.4609375,NaN
1731725439119.8438,45.41015625,-333.49609375,-202.63671875,-99.12109375,NaN
1731725439123.75,-97.16796875,-562.98828125,-210.9375,-65.91796875,NaN
1731725439127.6562,-197.75390625,-245.1171875,-199.70703125,-97.65625,NaN
1731725439131.5625,-61.5234375,-147.4609375,-209.47265625,-156.73828125,NaN
1731725439135.4688,91.30859375,-463.37890625,-215.8203125,-134.27734375,NaN
1731725439139.375,-5.859375,-324.21875,-204.58984375,-81.54296875,NaN
1731725439143.2812,-165.0390625,-344.7265625,-220.21484375,-51.26953125,NaN
1731725439147.1875,-114.74609375,-372.0703125,-218.26171875,-151.85546875,NaN
1731725439151.0938,89.84375,-518.06640625,-241.69921875,-198.2421875,NaN
1731725439155,33.69140625,-851.5625,-231.4453125,-95.21484375,NaN
1731725439158.9062,-196.77734375,-207.03125,-191.40625,-64.94140625,NaN
1731725439162.8125,-152.83203125,33.69140625,-201.171875,-92.28515625,NaN
1731725439166.7188,14.16015625,-508.30078125,-216.796875,-137.20703125,NaN
1731725439170.625,58.10546875,-392.578125,-207.03125,-150.87890625,NaN
1731725439174.5312,-64.453125,218.75,-202.1484375,-103.515625,NaN
1731725439178.4375,-196.2890625,45.8984375,-241.2109375,-140.13671875,NaN
1731725439182.3438,-115.234375,-416.50390625,-280.76171875,-234.375,NaN
1731725439186.25,-28.80859375,-561.03515625,-303.22265625,-218.26171875,NaN
1731725439190.1562,-184.5703125,-440.4296875,-310.05859375,-189.94140625,NaN
1731725439194.0625,-298.828125,-461.9140625,-311.03515625,-216.796875,NaN
1731725439197.9688,-177.24609375,-822.265625,-325.1953125,-276.85546875,NaN
1731725439201.875,-45.41015625,-565.4296875,-274.4140625,-309.5703125,NaN
1731725439205.7812,-70.3125,124.51171875,-233.3984375,-208.0078125,NaN
1731725439209.6875,-227.5390625,-216.796875,-255.37109375,-132.32421875,NaN
1731725439213.5938,-222.65625,-764.6484375,-269.04296875,-233.3984375,NaN
1731725439217.5,-48.828125,-349.609375,-261.23046875,-262.20703125,NaN
1731725439221.4062,-58.10546875,75.1953125,-288.0859375,-198.73046875,NaN
1731725439225.3125,-224.12109375,-320.3125,-350.09765625,-184.08203125,NaN
1731725439229.2188,-234.375,-728.02734375,-387.20703125,-234.86328125,NaN
1731725439233.125,-94.23828125,-446.2890625,-390.625,-318.84765625,NaN
1731725439237.0312,-63.4765625,-410.64453125,-409.1796875,-268.06640625,NaN
1731725439240.9375,-214.35546875,-688.96484375,-466.796875,-185.546875,NaN
1731725439244.8438,-273.92578125,-920.8984375,-484.86328125,-221.19140625,NaN
1731725439248.75,-138.18359375,-448.73046875,-437.5,-278.80859375,NaN
1731725439252.6562,7.8125,-104.00390625,-440.91796875,-238.28125,NaN
1731725439256.5625,-129.39453125,-318.359375,-416.015625,-177.734375,NaN
1731725439260.4688,-286.1328125,-422.36328125,-372.55859375,-182.12890625,NaN
1731725439264.375,-126.953125,-416.9921875,-351.5625,-225.5859375,NaN
1731725439268.2812,9.27734375,-586.9140625,-320.3125,-208.49609375,NaN
1731725439272.1875,-97.65625,-864.2578125,-296.38671875,-153.3203125,NaN
1731725439276.0938,-249.51171875,-820.80078125,-260.25390625,-130.37109375,NaN
1731725439280,-175.29296875,-683.59375,-257.32421875,-182.12890625,NaN
1731725439283.9062,1.46484375,-897.94921875,-256.8359375,-263.18359375,NaN
1731725439287.8125,-20.5078125,-991.69921875,-255.859375,-217.7734375,NaN
1731725439291.7188,-181.640625,-732.421875,-223.6328125,-191.40625,NaN
1731725439295.625,-231.93359375,-416.015625,-134.27734375,-195.80078125,NaN
1731725439299.5312,-124.0234375,-672.8515625,-85.9375,-202.1484375,NaN
1731725439303.4375,-101.07421875,-783.203125,-32.71484375,-259.27734375,NaN
1731725439307.3438,-250.9765625,-447.265625,23.4375,-222.65625,NaN
1731725439311.25,-326.171875,-556.15234375,24.4140625,-256.34765625,NaN
1731725439315.1562,-229.00390625,-875.48828125,60.546875,-344.7265625,NaN
1731725439319.0625,-120.1171875,-873.046875,119.140625,-335.9375,NaN
1731725439322.9688,-236.328125,-602.5390625,176.7578125,-266.6015625,NaN
1731725439326.875,-371.09375,-686.5234375,218.26171875,-268.5546875,NaN
1731725439330.7812,-269.04296875,-977.05078125,234.86328125,-333.49609375,NaN
1731725439334.6875,-137.20703125,-986.328125,297.8515625,-331.0546875,NaN
1731725439338.5938,-220.703125,-599.609375,401.85546875,-259.27734375,NaN
1731725439342.5,-312.98828125,-492.67578125,439.453125,-297.36328125,NaN
1731725439346.4062,-327.63671875,-915.0390625,450.1953125,-367.1875,NaN
1731725439350.3125,-209.47265625,-884.27734375,496.09375,-395.5078125,NaN
1731725439354.2188,-223.14453125,-455.078125,544.43359375,-379.39453125,NaN
1731725439358.125,-407.71484375,-496.58203125,530.2734375,-361.81640625,NaN
1731725439362.0312,-457.51953125,-880.859375,499.51171875,-416.9921875,NaN
1731725439365.9375,-349.609375,-742.67578125,530.76171875,-447.265625,NaN
1731725439369.8438,-298.33984375,-379.39453125,546.875,-440.4296875,NaN
1731725439373.75,-460.9375,-518.5546875,516.6015625,-429.6875,NaN
1731725439377.6562,-552.24609375,-916.9921875,467.7734375,-456.54296875,NaN
1731725439381.5625,-434.08203125,-1000,476.5625,-490.234375,NaN
1731725439385.4688,-293.45703125,-967.7734375,525.390625,-482.91015625,NaN
1731725439389.375,-382.32421875,-903.3203125,498.046875,-424.31640625,NaN
1731725439393.2812,-473.6328125,-948.73046875,443.359375,-341.796875,NaN
1731725439397.1875,-345.21484375,-1000,506.34765625,-382.8125,NaN
1731725439401.0938,-190.91796875,-702.63671875,553.7109375,-387.6953125,NaN
1731725439405,-271.484375,-615.234375,525.87890625,-305.17578125,NaN
1731725439408.9062,-451.171875,-944.82421875,532.2265625,-354.4921875,NaN
1731725439412.8125,-427.24609375,-891.11328125,583.984375,-403.80859375,NaN
1731725439416.7188,-258.7890625,-792.96875,634.27734375,-420.41015625,NaN
1731725439420.625,-201.66015625,-860.83984375,649.4140625,-378.90625,NaN
1731725439424.5312,-380.37109375,-1000,716.796875,-366.2109375,NaN
1731725439428.4375,-440.91796875,-970.21484375,792.96875,-437.98828125,NaN
1731725439432.3438,-301.26953125,-905.76171875,852.05078125,-451.171875,NaN
1731725439436.25,-217.28515625,-958.0078125,916.9921875,-412.59765625,NaN
1731725439440.1562,-334.9609375,-1000,948.73046875,-375.48828125,NaN
1731725439444.0625,-444.82421875,-998.53515625,970.21484375,-376.953125,NaN
1731725439447.9688,-309.5703125,-983.3984375,968.26171875,-380.37109375,NaN
1731725439451.875,-206.54296875,-996.58203125,968.75,-383.30078125,NaN
1731725439455.7812,-300.78125,-790.52734375,967.28515625,-363.28125,NaN
1731725439459.6875,-431.15234375,-703.61328125,971.19140625,-385.25390625,NaN
1731725439463.5938,-321.77734375,-867.67578125,934.5703125,-460.44921875,NaN
1731725439467.5,-237.79296875,-938.4765625,871.09375,-481.93359375,NaN
1731725439471.4062,-377.44140625,-1000,803.22265625,-480.46875,NaN
1731725439475.3125,-575.1953125,-907.71484375,679.19921875,-522.4609375,NaN
1731725439479.2188,-594.23828125,-848.6328125,590.33203125,-564.453125,NaN
1731725439483.125,-420.8984375,-1000,575.1953125,-571.77734375,NaN
1731725439487.0312,-419.921875,-862.3046875,604.98046875,-582.51953125,NaN
1731725439490.9375,-532.2265625,-618.1640625,605.46875,-555.6640625,NaN
1731725439494.8438,-604.4921875,-873.53515625,578.61328125,-555.6640625,NaN
1731725439498.75,-567.87109375,-1000,560.546875,-655.2734375,NaN
1731725439502.6562,-467.28515625,-857.91015625,559.08203125,-666.015625,NaN
1731725439506.5625,-522.94921875,-494.62890625,600.09765625,-561.5234375,NaN
1731725439510.4688,-593.75,-685.546875,614.2578125,-559.5703125,NaN
1731725439514.375,-536.62109375,-1000,610.3515625,-604.98046875,NaN
1731725439518.2812,-440.4296875,-902.83203125,656.73828125,-613.76953125,NaN
1731725439522.1875,-506.34765625,-789.0625,729.00390625,-599.609375,NaN
1731725439526.0938,-631.8359375,-871.09375,707.03125,-561.5234375,NaN
1731725439530,-567.87109375,-953.125,694.3359375,-583.984375,NaN
1731725439533.9062,-424.8046875,-779.78515625,766.6015625,-617.67578125,NaN
1731725439537.8125,-422.8515625,-536.1328125,770.01953125,-610.3515625,NaN
1731725439541.7188,-579.1015625,-685.546875,758.30078125,-579.58984375,NaN
1731725439545.625,-580.078125,-841.30859375,774.90234375,-593.26171875,NaN
1731725439549.5312,-383.7890625,-587.890625,814.94140625,-607.421875,NaN
1731725439553.4375,-326.171875,-516.6015625,854.00390625,-542.96875,NaN
1731725439557.3438,-479.00390625,-791.015625,859.375,-477.05078125,NaN
1731725439561.25,-594.7265625,-833.984375,837.890625,-541.9921875,NaN
1731725439565.1562,-461.42578125,-924.31640625,796.38671875,-628.90625,NaN
1731725439569.0625,-345.703125,-1000,751.46484375,-602.5390625,NaN
1731725439572.9688,-433.59375,-1000,741.69921875,-505.37109375,NaN
1731725439576.875,-496.58203125,-942.87109375,800.78125,-503.41796875,NaN
1731725439580.7812,-407.2265625,-721.19140625,837.40234375,-566.40625,NaN
1731725439584.6875,-260.7421875,-782.71484375,830.56640625,-536.1328125,NaN
1731725439588.5938,-281.25,-819.3359375,868.1640625,-382.8125,NaN
1731725439592.5,-408.203125,-710.44921875,882.8125,-363.28125,NaN
1731725439596.4062,-353.02734375,-834.47265625,836.9140625,-415.0390625,NaN
1731725439600.3125,-208.0078125,-946.2890625,818.359375,-408.203125,NaN
1731725439604.2188,-192.87109375,-854.00390625,816.40625,-404.296875,NaN
1731725439608.125,-316.89453125,-775.87890625,770.5078125,-338.37890625,NaN
1731725439612.0312,-354.98046875,-983.88671875,702.1484375,-386.71875,NaN
1731725439615.9375,-232.91015625,-1000,629.8828125,-460.9375,NaN
1731725439619.8438,-160.64453125,-1000,614.2578125,-425.78125,NaN
1731725439623.75,-285.15625,-763.18359375,662.59765625,-372.0703125,NaN
1731725439627.6562,-347.16796875,-687.5,598.6328125,-376.46484375,NaN
1731725439631.5625,-258.7890625,-984.86328125,543.9453125,-445.80078125,NaN
1731725439635.4688,-158.203125,-915.0390625,556.15234375,-437.98828125,NaN
1731725439639.375,-228.02734375,-666.9921875,544.43359375,-385.25390625,NaN
1731725439643.2812,-363.28125,-724.12109375,477.05078125,-430.17578125,NaN
1731725439647.1875,-297.8515625,-1000,418.9453125,-487.3046875,NaN
1731725439651.0938,-177.734375,-890.625,433.10546875,-467.7734375,NaN
1731725439655,-219.7265625,-607.421875,415.0390625,-427.734375,NaN
1731725439658.9062,-350.5859375,-821.2890625,351.07421875,-412.59765625,NaN
1731725439662.8125,-357.91015625,-1000,301.7578125,-449.21875,NaN
1731725439666.7188,-229.4921875,-875.48828125,291.50390625,-508.7890625,NaN
1731725439670.625,-186.5234375,-733.88671875,283.203125,-436.5234375,NaN
1731725439674.5312,-290.0390625,-884.765625,243.65234375,-355.95703125,NaN
1731725439678.4375,-291.9921875,-998.046875,226.07421875,-400.87890625,NaN
1731725439682.3438,-116.69921875,-896.484375,282.2265625,-395.99609375,NaN
1731725439686.25,0,-667.48046875,341.30859375,-312.98828125,NaN
1731725439690.1562,-88.37890625,-725.09765625,355.46875,-254.39453125,NaN
1731725439694.0625,-174.31640625,-962.40234375,359.375,-221.6796875,NaN
1731725439697.9688,-55.17578125,-814.94140625,381.34765625,-263.671875,NaN
1731725439701.875,80.56640625,-659.66796875,381.34765625,-273.92578125,NaN
1731725439705.7812,17.578125,-885.7421875,340.8203125,-204.1015625,NaN
1731725439709.6875,-126.46484375,-1000,331.0546875,-211.42578125,NaN
1731725439713.5938,-110.83984375,-918.9453125,341.30859375,-284.66796875,NaN
1731725439717.5,51.26953125,-815.91796875,323.73046875,-269.04296875,NaN
1731725439721.4062,65.91796875,-937.98828125,325.1953125,-217.28515625,NaN
1731725439725.3125,-82.51953125,-982.421875,342.7734375,-179.19921875,NaN
1731725439729.2188,-85.44921875,-984.375,338.37890625,-202.63671875,NaN
1731725439733.125,111.328125,-898.92578125,340.8203125,-225.5859375,NaN
1731725439737.0312,129.39453125,-918.45703125,339.35546875,-187.01171875,NaN
1731725439740.9375,-76.171875,-974.609375,340.33203125,-150.390625,NaN
1731725439744.8438,-109.86328125,-925.78125,335.44921875,-150.390625,NaN
1731725439748.75,41.50390625,-970.703125,302.24609375,-193.84765625,NaN
1731725439752.6562,140.625,-1000,269.04296875,-177.734375,NaN
1731725439756.5625,23.92578125,-968.75,272.94921875,-148.4375,NaN
1731725439760.4688,-92.7734375,-956.0546875,258.7890625,-152.83203125,NaN
1731725439764.375,29.78515625,-1000,213.37890625,-159.1796875,NaN
1731725439768.2812,186.03515625,-989.2578125,199.21875,-125,NaN
1731725439772.1875,84.47265625,-710.44921875,215.33203125,-113.28125,NaN
1731725439776.0938,-73.73046875,-519.53125,182.6171875,-125.9765625,NaN
1731725439780,17.578125,-801.26953125,128.41796875,-137.20703125,NaN
1731725439783.9062,144.53125,-1000,105.95703125,-178.22265625,NaN
1731725439787.8125,117.1875,-923.33984375,125,-102.5390625,NaN
1731725439791.7188,-37.109375,-872.55859375,147.94921875,-60.546875,NaN
1731725439795.625,-34.1796875,-990.234375,115.72265625,-84.47265625,NaN
1731725439799.5312,123.046875,-1000,102.5390625,-96.6796875,NaN
1731725439803.4375,137.6953125,-984.375,130.859375,-149.90234375,NaN
1731725439807.3438,6.8359375,-835.44921875,116.2109375,-105.46875,NaN
1731725439811.25,-78.125,-907.2265625,52.24609375,-117.1875,NaN
1731725439815.1562,11.71875,-989.2578125,16.11328125,-200.1953125,NaN
1731725439819.0625,50.78125,-818.84765625,5.37109375,-223.6328125,NaN
1731725439822.9688,-47.8515625,-715.8203125,-23.4375,-146.484375,NaN
1731725439826.875,-151.85546875,-824.70703125,-25.390625,-128.90625,NaN
1731725439830.7812,-92.7734375,-814.94140625,-14.6484375,-199.21875,NaN
1731725439834.6875,41.50390625,-667.48046875,-24.90234375,-169.43359375,NaN
1731725439838.5938,1.46484375,-704.1015625,-43.45703125,-132.32421875,NaN
1731725439842.5,-112.79296875,-935.05859375,-61.03515625,-140.13671875,NaN
1731725439846.4062,-74.70703125,-1000,-66.89453125,-157.2265625,NaN
1731725439850.3125,51.26953125,-983.88671875,-74.70703125,-177.24609375,NaN
1731725439854.2188,41.50390625,-842.28515625,-77.63671875,-121.58203125,NaN
1731725439858.125,-90.33203125,-930.17578125,-121.09375,-66.40625,NaN
1731725439862.0312,-94.7265625,-996.09375,-119.62890625,-120.1171875,NaN
1731725439865.9375,22.94921875,-726.5625,-81.54296875,-167.48046875,NaN
1731725439869.8438,75.1953125,-764.6484375,-96.19140625,-132.8125,NaN
1731725439873.75,-9.27734375,-937.98828125,-84.47265625,-51.7578125,NaN
1731725439877.6562,-96.6796875,-842.7734375,-68.359375,-56.640625,NaN
1731725439881.5625,19.04296875,-745.1171875,-82.03125,-118.1640625,NaN
1731725439885.4688,164.55078125,-870.1171875,-100.5859375,-67.87109375,NaN
1731725439889.375,65.4296875,-891.11328125,-103.02734375,-18.06640625,NaN
1731725439893.2812,-84.9609375,-884.27734375,-123.046875,-32.71484375,NaN
1731725439897.1875,1.46484375,-1000,-138.671875,-57.12890625,NaN
1731725439901.0938,164.55078125,-1000,-158.69140625,-46.875,NaN
1731725439905,110.83984375,-998.53515625,-148.4375,6.8359375,NaN
1731725439908.9062,-35.64453125,-691.40625,-112.79296875,5.37109375,NaN
1731725439912.8125,20.01953125,-709.47265625,-143.5546875,-27.34375,NaN
1731725439916.7188,134.27734375,-967.7734375,-142.08984375,-65.4296875,NaN
1731725439920.625,151.85546875,-758.30078125,-128.41796875,-41.015625,NaN
1731725439924.5312,57.6171875,-751.46484375,-126.953125,32.2265625,NaN
1731725439928.4375,-5.859375,-959.47265625,-140.625,34.1796875,NaN
1731725439932.3438,95.21484375,-1000,-150.390625,-38.0859375,NaN
1731725439936.25,168.45703125,-966.30859375,-130.37109375,-43.45703125,NaN
1731725439940.1562,61.03515625,-977.5390625,-131.8359375,25.390625,NaN
1731725439944.0625,-35.15625,-987.79296875,-154.78515625,-27.34375,NaN
1731725439947.9688,84.9609375,-1000,-155.2734375,-85.44921875,NaN
1731725439951.875,198.2421875,-698.2421875,-116.69921875,-28.3203125,NaN
1731725439955.7812,106.4453125,-255.859375,-116.2109375,23.4375,NaN
1731725439959.6875,-23.92578125,-665.52734375,-166.9921875,-11.23046875,NaN
1731725439963.5938,53.22265625,-938.96484375,-190.4296875,-30.2734375,NaN
1731725439967.5,196.2890625,-602.5390625,-167.96875,-20.99609375,NaN
1731725439971.4062,121.58203125,-305.17578125,-166.9921875,-14.16015625,NaN
1731725439975.3125,-5.37109375,-563.4765625,-191.40625,-4.8828125,NaN
1731725439979.2188,18.06640625,-766.11328125,-196.77734375,-28.80859375,NaN
1731725439983.125,125.9765625,-497.55859375,-198.2421875,-32.2265625,NaN
1731725439987.0312,149.90234375,-671.38671875,-211.42578125,-30.76171875,NaN
1731725439990.9375,48.33984375,-955.078125,-236.81640625,27.83203125,NaN
1731725439994.8438,3.41796875,-958.49609375,-241.2109375,43.45703125,NaN
1731725439998.75,106.4453125,-683.10546875,-212.40234375,-69.3359375,NaN
1731725440002.6562,183.59375,-379.39453125,-219.23828125,-46.875,NaN
1731725440006.5625,41.015625,-651.85546875,-225.5859375,53.7109375,NaN
1731725440010.4688,-74.70703125,-702.1484375,-221.6796875,12.6953125,NaN
1731725440014.375,33.69140625,-723.14453125,-234.86328125,-44.921875,NaN
1731725440018.2812,149.90234375,-797.8515625,-239.74609375,-34.1796875,NaN
1731725440022.1875,89.84375,-817.87109375,-243.65234375,17.578125,NaN
1731725440026.0938,-14.6484375,-804.6875,-237.3046875,41.015625,NaN
1731725440030,-4.39453125,-628.41796875,-243.1640625,-27.34375,NaN
1731725440033.9062,136.23046875,-908.69140625,-269.04296875,-48.33984375,NaN
1731725440037.8125,167.48046875,-1000,-284.1796875,20.99609375,NaN
1731725440041.7188,-2.9296875,-843.75,-260.25390625,28.80859375,NaN
1731725440045.625,-41.9921875,-521.484375,-242.1875,-33.203125,NaN
1731725440049.5312,107.91015625,-625,-262.6953125,-44.43359375,NaN
1731725440053.4375,144.53125,-722.16796875,-266.6015625,-0.48828125,NaN
1731725440057.3438,0,-505.37109375,-260.7421875,29.78515625,NaN
1731725440061.25,-58.10546875,-696.77734375,-273.4375,29.78515625,NaN
1731725440065.1562,79.1015625,-935.05859375,-278.3203125,-20.01953125,NaN
1731725440069.0625,174.8046875,-806.15234375,-261.71875,-31.73828125,NaN
1731725440072.9688,70.80078125,-667.96875,-250.48828125,19.53125,NaN
1731725440076.875,-59.5703125,-668.9453125,-258.7890625,6.8359375,NaN
1731725440080.7812,44.43359375,-860.83984375,-302.24609375,-20.5078125,NaN
1731725440084.6875,181.15234375,-982.421875,-310.05859375,1.953125,NaN
1731725440088.5938,67.87109375,-673.33984375,-263.671875,6.34765625,NaN
1731725440092.5,-67.3828125,-514.16015625,-266.11328125,-29.78515625,NaN
1731725440096.4062,21.97265625,-835.44921875,-297.36328125,-40.0390625,NaN
1731725440100.3125,159.1796875,-869.140625,-288.0859375,-34.66796875,NaN
1731725440104.2188,114.2578125,-505.37109375,-255.37109375,-35.15625,NaN
1731725440108.125,4.39453125,-479.98046875,-261.23046875,-12.6953125,NaN
1731725440112.0312,-21.97265625,-819.3359375,-267.08984375,7.8125,NaN
1731725440115.9375,96.19140625,-995.1171875,-255.37109375,-38.0859375,NaN
1731725440119.8438,153.80859375,-621.09375,-219.23828125,-48.828125,NaN
1731725440123.75,53.7109375,-559.5703125,-207.51953125,13.18359375,NaN
1731725440127.6562,-39.55078125,-958.49609375,-208.984375,-1.953125,NaN
1731725440131.5625,35.64453125,-1000,-198.73046875,-51.7578125,NaN
1731725440135.4688,145.99609375,-990.72265625,-188.4765625,-44.43359375,NaN
1731725440139.375,64.94140625,-920.41015625,-185.546875,9.765625,NaN
1731725440143.2812,-27.34375,-954.1015625,-225.09765625,23.4375,NaN
1731725440147.1875,20.01953125,-962.890625,-199.70703125,-28.80859375,NaN
1731725440151.0938,108.88671875,-709.9609375,-179.6875,-52.734375,NaN
1731725440155,146.484375,-754.8828125,-189.453125,35.15625,NaN
1731725440158.9062,30.76171875,-804.19921875,-169.921875,54.19921875,NaN
1731725440162.8125,-37.109375,-591.30859375,-161.62109375,-64.453125,NaN
1731725440166.7188,94.7265625,-542.48046875,-152.83203125,-83.49609375,NaN
1731725440170.625,143.06640625,-752.44140625,-136.23046875,-5.859375,NaN
1731725440174.5312,15.13671875,-1000,-107.421875,40.0390625,NaN
1731725440178.4375,-47.36328125,-821.2890625,-75.68359375,14.16015625,NaN
1731725440182.3438,83.0078125,-442.87109375,-60.546875,-21.97265625,NaN
1731725440186.25,132.32421875,-634.765625,-108.3984375,12.6953125,NaN
1731725440190.1562,-9.765625,-1000,-120.1171875,15.625,NaN
1731725440194.0625,-68.84765625,-566.40625,-61.03515625,-41.015625,NaN
1731725440197.9688,45.8984375,-245.60546875,-72.75390625,-58.59375,NaN
1731725440201.875,139.6484375,-538.57421875,-59.5703125,-40.0390625,NaN
1731725440205.7812,91.796875,-418.9453125,-15.13671875,0,NaN
1731725440209.6875,-47.8515625,-100.5859375,-6.34765625,-1.46484375,NaN
1731725440213.5938,-32.71484375,-425.78125,-35.64453125,-30.76171875,NaN
1731725440217.5,117.1875,-881.34765625,-48.33984375,-38.0859375,NaN
1731725440221.4062,95.21484375,-896.484375,-32.2265625,22.94921875,NaN
1731725440225.3125,-2.9296875,-913.0859375,-19.04296875,45.41015625,NaN
1731725440229.2188,-4.39453125,-748.046875,-25.87890625,-21.97265625,NaN
1731725440233.125,85.9375,-873.046875,-45.41015625,-30.76171875,NaN
1731725440237.0312,113.76953125,-609.375,7.8125,-9.27734375,NaN
1731725440240.9375,19.04296875,-33.69140625,25.87890625,21.484375,NaN
1731725440244.8438,-3.41796875,-448.73046875,-5.859375,21.484375,NaN
1731725440248.75,95.21484375,-666.9921875,-0.48828125,-24.90234375,NaN
1731725440252.6562,140.13671875,-102.05078125,17.08984375,-35.64453125,NaN
1731725440256.5625,43.45703125,113.76953125,-2.44140625,23.92578125,NaN
1731725440260.4688,-30.2734375,-341.30859375,-30.2734375,44.43359375,NaN
1731725440264.375,44.43359375,-573.73046875,-47.36328125,-14.16015625,NaN
1731725440268.2812,103.515625,-562.98828125,-48.828125,-44.921875,NaN
1731725440272.1875,41.015625,-474.609375,-0.9765625,23.92578125,NaN
1731725440276.0938,-46.38671875,-603.515625,-17.578125,41.015625,NaN
1731725440280,-9.27734375,-1000,-23.92578125,-41.9921875,NaN
1731725440283.9062,76.171875,-837.40234375,50.29296875,-86.9140625,NaN
1731725440287.8125,75.1953125,-488.28125,73.73046875,-56.15234375,NaN
1731725440291.7188,-19.53125,-660.15625,68.359375,-19.04296875,NaN
1731725440295.625,-43.9453125,-799.31640625,42.96875,-29.78515625,NaN
1731725440299.5312,56.640625,-764.16015625,0.9765625,-72.75390625,NaN
1731725440303.4375,104.4921875,-932.6171875,-15.625,-44.43359375,NaN
1731725440307.3438,23.92578125,-911.62109375,2.44140625,18.5546875,NaN
1731725440311.25,-13.671875,-617.1875,20.99609375,25.87890625,NaN
1731725440315.1562,71.2890625,-748.53515625,-5.37109375,-58.10546875,NaN
1731725440319.0625,107.91015625,-995.1171875,-15.625,-85.9375,NaN
1731725440322.9688,45.41015625,-960.44921875,-1.46484375,-1.953125,NaN
1731725440326.875,-29.296875,-759.27734375,-0.9765625,5.37109375,NaN
1731725440330.7812,18.5546875,-411.62109375,1.46484375,-49.31640625,NaN
1731725440334.6875,149.4140625,-665.0390625,-15.625,-30.76171875,NaN
1731725440338.5938,132.32421875,-703.61328125,12.20703125,38.57421875,NaN
1731725440342.5,43.9453125,-205.078125,54.6875,20.01953125,NaN
1731725440346.4062,73.2421875,-158.203125,54.6875,-39.55078125,NaN
1731725440350.3125,153.3203125,-480.46875,65.4296875,-28.80859375,NaN
1731725440354.2188,140.625,-438.96484375,91.30859375,-7.32421875,NaN
1731725440358.125,17.08984375,-333.984375,103.02734375,4.39453125,NaN
1731725440362.0312,-4.39453125,-712.40234375,94.23828125,-31.73828125,NaN
1731725440365.9375,113.28125,-936.03515625,65.91796875,-51.26953125,NaN
1731725440369.8438,153.80859375,-990.72265625,81.0546875,-0.9765625,NaN
1731725440373.75,68.84765625,-443.84765625,132.32421875,37.109375,NaN
1731725440377.6562,0,-64.453125,108.88671875,23.92578125,NaN
1731725440381.5625,62.98828125,-378.41796875,86.42578125,-66.89453125,NaN
1731725440385.4688,124.51171875,-189.453125,117.1875,-76.171875,NaN
1731725440389.375,63.4765625,141.11328125,128.41796875,4.8828125,NaN
1731725440393.2812,-39.0625,-31.73828125,120.60546875,14.16015625,NaN
1731725440397.1875,9.765625,-296.38671875,105.46875,-31.73828125,NaN
1731725440401.0938,135.25390625,-247.0703125,114.2578125,-30.2734375,NaN
1731725440405,99.12109375,-39.0625,106.93359375,28.3203125,NaN
1731725440408.9062,-17.578125,-473.14453125,44.921875,56.15234375,NaN
1731725440412.8125,37.109375,-1000,5.859375,24.90234375,NaN
1731725440416.7188,138.18359375,-859.86328125,26.3671875,-17.08984375,NaN
1731725440420.625,85.44921875,-289.55078125,50.29296875,-14.16015625,NaN
1731725440424.5312,-8.7890625,-316.40625,37.109375,44.43359375,NaN
1731725440428.4375,-24.4140625,-791.015625,37.59765625,36.1328125,NaN
1731725440432.3438,62.01171875,-508.30078125,33.69140625,-18.06640625,NaN
1731725440436.25,131.8359375,-46.38671875,-16.6015625,3.90625,NaN
1731725440440.1562,68.84765625,-376.953125,-48.33984375,67.87109375,NaN
1731725440444.0625,-13.671875,-730.46875,-50.29296875,52.24609375,NaN
1731725440447.9688,9.27734375,-474.609375,-42.48046875,-23.4375,NaN
1731725440451.875,109.375,-283.203125,-47.36328125,-28.80859375,NaN
1731725440455.7812,85.9375,-646.484375,-96.6796875,30.2734375,NaN
1731725440459.6875,-47.8515625,-914.55078125,-118.1640625,29.78515625,NaN
1731725440463.5938,-25.390625,-676.7578125,-81.54296875,-37.109375,NaN
1731725440467.5,81.54296875,-499.0234375,-62.98828125,-56.15234375,NaN
1731725440471.4062,57.6171875,-715.8203125,-64.453125,8.30078125,NaN
1731725440475.3125,-53.7109375,-784.1796875,-35.15625,46.875,NaN
1731725440479.2188,-51.26953125,-415.0390625,0,-17.08984375,NaN
1731725440483.125,42.96875,-530.76171875,-10.25390625,-93.26171875,NaN
1731725440487.0312,71.2890625,-763.671875,9.765625,-57.6171875,NaN
1731725440490.9375,21.484375,-585.9375,50.29296875,11.23046875,NaN
1731725440494.8438,-56.640625,-337.40234375,83.0078125,-7.8125,NaN
1731725440498.75,7.8125,-501.953125,93.26171875,-58.59375,NaN
1731725440502.6562,85.44921875,-871.09375,85.44921875,-39.55078125,NaN
1731725440506.5625,-9.27734375,-769.04296875,93.26171875,12.20703125,NaN
1731725440510.4688,-83.0078125,-459.47265625,90.33203125,-12.6953125,NaN
1731725440514.375,14.6484375,-677.24609375,60.05859375,-61.03515625,NaN
1731725440518.2812,117.1875,-894.04296875,54.6875,-42.96875,NaN
1731725440522.1875,49.31640625,-644.04296875,70.80078125,11.23046875,NaN
1731725440526.0938,-84.9609375,-498.046875,66.89453125,2.9296875,NaN
1731725440530,-51.26953125,-815.4296875,37.59765625,-42.48046875,NaN
1731725440533.9062,95.703125,-963.8671875,41.015625,-20.5078125,NaN
1731725440537.8125,59.08203125,-622.55859375,86.42578125,-4.8828125,NaN
1731725440541.7188,-72.265625,-402.34375,95.21484375,3.41796875,NaN
1731725440545.625,-58.10546875,-656.73828125,80.078125,-15.13671875,NaN
1731725440549.5312,80.078125,-1000,52.24609375,-47.36328125,NaN
1731725440553.4375,107.421875,-941.40625,55.17578125,-18.06640625,NaN
1731725440557.3438,-25.390625,-530.2734375,56.640625,2.44140625,NaN
1731725440561.25,-72.75390625,-686.5234375,-20.5078125,10.7421875,NaN
1731725440565.1562,37.59765625,-1000,-55.17578125,-10.7421875,NaN
1731725440569.0625,128.90625,-426.26953125,-2.9296875,-46.875,NaN
1731725440572.9688,5.859375,-96.19140625,-50.29296875,-3.90625,NaN
1731725440576.875,-99.12109375,-563.4765625,-131.8359375,-25.87890625,NaN
1731725440580.7812,-3.41796875,-627.44140625,-179.6875,-68.359375,NaN
1731725440584.6875,110.83984375,-569.3359375,-205.078125,-59.5703125,NaN
1731725440588.5938,81.54296875,-715.33203125,-196.77734375,2.9296875,NaN
1731725440592.5,-13.18359375,-763.671875,-167.48046875,20.5078125,NaN
1731725440596.4062,-30.2734375,-911.62109375,-141.11328125,-42.48046875,NaN
1731725440600.3125,75.1953125,-843.26171875,-107.91015625,-41.9921875,NaN
1731725440604.2188,98.6328125,-563.96484375,-93.75,7.8125,NaN
1731725440608.125,-45.8984375,-758.7890625,-116.2109375,17.578125,NaN
1731725440612.0312,-61.5234375,-747.55859375,-114.74609375,-31.73828125,NaN
1731725440615.9375,67.87109375,-269.53125,-115.72265625,-40.0390625,NaN
1731725440619.8438,105.95703125,-352.05078125,-136.71875,-0.48828125,NaN
1731725440623.75,-20.5078125,-546.38671875,-158.203125,-0.48828125,NaN
1731725440627.6562,-91.30859375,-276.85546875,-173.828125,-10.7421875,NaN
1731725440631.5625,27.34375,-218.75,-196.77734375,-41.9921875,NaN
1731725440635.4688,130.859375,-425.29296875,-195.3125,-37.59765625,NaN
1731725440639.375,37.109375,-545.8984375,-191.40625,-1.46484375,NaN
1731725440643.2812,-67.87109375,-555.6640625,-197.265625,-8.7890625,NaN
1731725440647.1875,-34.66796875,-599.609375,-204.58984375,-46.875,NaN
1731725440651.0938,89.84375,-769.53125,-250.9765625,-37.109375,NaN
1731725440655,55.17578125,-916.9921875,-255.37109375,9.27734375,NaN
1731725440658.9062,-107.91015625,-263.671875,-199.70703125,-36.62109375,NaN
1731725440662.8125,-78.61328125,-47.36328125,-229.00390625,-66.40625,NaN
1731725440666.7188,52.734375,-360.83984375,-249.0234375,-62.5,NaN
1731725440670.625,61.5234375,-146.484375,-231.4453125,-23.92578125,NaN
1731725440674.5312,-56.640625,66.89453125,-225.09765625,4.8828125,NaN
1731725440678.4375,-81.54296875,-251.953125,-220.21484375,-32.2265625,NaN
1731725440682.3438,24.90234375,-585.9375,-215.33203125,-98.6328125,NaN
1731725440686.25,62.98828125,-508.30078125,-194.82421875,-79.1015625,NaN
1731725440690.1562,-14.6484375,-700.68359375,-182.6171875,-23.92578125,NaN
1731725440694.0625,-57.12890625,-878.90625,-197.75390625,-34.66796875,NaN
1731725440697.9688,5.859375,-930.6640625,-214.35546875,-49.31640625,NaN
1731725440701.875,65.4296875,-923.828125,-155.76171875,-56.15234375,NaN
1731725440705.7812,0.48828125,-350.5859375,-41.015625,-23.92578125,NaN
1731725440709.6875,-88.8671875,-245.1171875,1.46484375,-15.625,NaN
1731725440713.5938,-45.41015625,-727.05078125,-30.2734375,-62.98828125,NaN
1731725440717.5,69.82421875,-518.5546875,-42.96875,-81.54296875,NaN
1731725440721.4062,47.36328125,-123.53515625,-50.78125,-24.4140625,NaN
1731725440725.3125,-95.21484375,-454.58984375,-85.44921875,-18.06640625,NaN
1731725440729.2188,-75.68359375,-835.9375,-81.0546875,-55.6640625,NaN
1731725440733.125,44.921875,-624.51171875,-15.625,-56.640625,NaN
1731725440737.0312,58.59375,-823.73046875,36.1328125,-43.45703125,NaN
1731725440740.9375,-37.109375,-978.02734375,11.71875,-1.953125,NaN
1731725440744.8438,-79.1015625,-913.0859375,4.39453125,-20.5078125,NaN
1731725440748.75,16.6015625,-819.3359375,87.40234375,-85.44921875,NaN
1731725440752.6562,82.51953125,-616.69921875,23.92578125,-79.1015625,NaN
1731725440756.5625,-1.953125,-720.21484375,-64.94140625,-18.5546875,NaN
1731725440760.4688,-90.33203125,-1000,-54.6875,-10.25390625,NaN
1731725440764.375,-13.18359375,-842.7734375,34.66796875,-70.80078125,NaN
1731725440768.2812,101.5625,-549.8046875,19.53125,-71.2890625,NaN
1731725440772.1875,23.92578125,-775.390625,36.62109375,10.7421875,NaN
1731725440776.0938,-95.703125,-757.8125,284.66796875,18.5546875,NaN
1731725440780,-39.55078125,-420.8984375,302.734375,-62.01171875,NaN
1731725440783.9062,104.00390625,-635.7421875,218.75,-92.28515625,NaN
1731725440787.8125,87.40234375,-977.05078125,240.72265625,-31.25,NaN
1731725440791.7188,-50.29296875,-743.65234375,187.5,8.30078125,NaN
1731725440795.625,-75.1953125,-584.9609375,105.46875,-34.1796875,NaN
1731725440799.5312,48.33984375,-754.39453125,125.48828125,-69.82421875,NaN
1731725440803.4375,114.2578125,-773.4375,294.43359375,-33.203125,NaN
1731725440807.3438,-15.625,-412.109375,405.2734375,11.71875,NaN
1731725440811.25,-94.7265625,-316.40625,318.84765625,-13.18359375,NaN
1731725440815.1562,38.0859375,-798.33984375,287.109375,-46.875,NaN
1731725440819.0625,114.2578125,-830.56640625,332.51953125,-16.6015625,NaN
1731725440822.9688,22.4609375,-299.31640625,268.5546875,1.46484375,NaN
1731725440826.875,-35.64453125,-312.98828125,162.59765625,3.41796875,NaN
1731725440830.7812,29.78515625,-848.6328125,67.3828125,-31.25,NaN
1731725440834.6875,125.48828125,-874.0234375,61.03515625,-70.80078125,NaN
1731725440838.5938,86.42578125,-438.96484375,87.890625,-34.1796875,NaN
1731725440842.5,-61.5234375,-301.26953125,-11.23046875,-5.37109375,NaN
1731725440846.4062,-84.47265625,-592.28515625,-101.07421875,-44.921875,NaN
1731725440850.3125,43.45703125,-700.68359375,-120.60546875,-73.2421875,NaN
1731725440854.2188,48.33984375,-284.66796875,-117.1875,-26.85546875,NaN
1731725440858.125,-78.125,-236.81640625,-152.34375,-16.6015625,NaN
1731725440862.0312,-75.1953125,-627.9296875,-167.96875,-40.52734375,NaN
1731725440865.9375,25.390625,-645.01953125,-101.5625,-74.21875,NaN
1731725440869.8438,85.9375,-440.91796875,-63.4765625,-67.3828125,NaN
1731725440873.75,20.5078125,-697.265625,-82.51953125,0.9765625,NaN
1731725440877.6562,-82.51953125,-964.84375,-134.765625,-4.8828125,NaN
1731725440881.5625,-46.38671875,-925.29296875,-162.59765625,-76.171875,NaN
1731725440885.4688,41.015625,-442.3828125,-64.94140625,-85.44921875,NaN
1731725440889.375,-32.2265625,-413.0859375,-39.0625,-24.4140625,NaN
1731725440893.2812,-145.01953125,-823.73046875,-53.7109375,-13.671875,NaN
1731725440897.1875,-84.47265625,-721.19140625,-71.77734375,-70.3125,NaN
1731725440901.0938,35.64453125,-650.390625,-150.87890625,-85.9375,NaN
1731725440905,37.59765625,-825.1953125,-210.44921875,-51.7578125,NaN
1731725440908.9062,-86.9140625,-900.390625,-202.1484375,7.8125,NaN
1731725440912.8125,-104.00390625,-765.625,-146.97265625,-26.3671875,NaN
1731725440916.7188,26.85546875,-697.75390625,-111.328125,-88.8671875,NaN
1731725440920.625,48.828125,-816.40625,-80.078125,-32.2265625,NaN
1731725440924.5312,-66.89453125,-1000,-63.4765625,25.87890625,NaN
1731725440928.4375,-95.21484375,-1000,-83.49609375,-14.16015625,NaN
1731725440932.3438,20.99609375,-931.640625,-81.0546875,-85.9375,NaN
1731725440936.25,72.75390625,-919.921875,-118.1640625,-52.734375,NaN
1731725440940.1562,-1.953125,-1000,-162.59765625,10.25390625,NaN
1731725440944.0625,-68.359375,-703.125,-130.37109375,-31.25,NaN
1731725440947.9688,-8.30078125,-600.09765625,-172.36328125,-70.3125,NaN
1731725440951.875,48.828125,-895.5078125,-229.00390625,-63.4765625,NaN
1731725440955.7812,-30.76171875,-757.32421875,-240.234375,-15.625,NaN
1731725440959.6875,-130.37109375,-521.484375,-250.9765625,8.30078125,NaN
1731725440963.5938,-69.3359375,-736.328125,-291.9921875,-58.59375,NaN
1731725440967.5,46.38671875,-935.546875,-307.6171875,-51.26953125,NaN
1731725440971.4062,40.0390625,-954.1015625,-263.18359375,22.4609375,NaN
1731725440975.3125,-64.94140625,-1000,-209.47265625,17.08984375,NaN
1731725440979.2188,-81.0546875,-990.72265625,-203.61328125,-50.29296875,NaN
1731725440983.125,21.484375,-987.3046875,-249.51171875,-66.40625,NaN
1731725440987.0312,65.4296875,-1000,-229.4921875,-16.11328125,NaN
1731725440990.9375,-33.69140625,-805.6640625,-208.0078125,-2.44140625,NaN
1731725440994.8438,-94.7265625,-744.62890625,-259.765625,-35.64453125,NaN
1731725440998.75,6.34765625,-991.2109375,-279.78515625,-75.68359375,NaN
1731725441002.6562,62.01171875,-646.484375,-208.49609375,-75.68359375,NaN
1731725441006.5625,-16.11328125,-274.4140625,-199.21875,-38.0859375,NaN
1731725441010.4688,-82.03125,-562.5,-231.93359375,-48.33984375,NaN
1731725441014.375,-4.8828125,-879.39453125,-238.76953125,-80.078125,NaN
1731725441018.2812,80.078125,-866.2109375,-207.51953125,-66.40625,NaN
1731725441022.1875,6.8359375,-620.60546875,-152.34375,-20.01953125,NaN
1731725441026.0938,-57.6171875,-675.78125,-180.17578125,7.32421875,NaN
1731725441030,3.41796875,-950.1953125,-159.1796875,-10.25390625,NaN
1731725441033.9062,60.05859375,-530.2734375,-44.921875,-74.21875,NaN
1731725441037.8125,18.06640625,-266.11328125,-31.25,-68.359375,NaN
1731725441041.7188,-67.87109375,-666.015625,-43.45703125,-26.3671875,NaN
1731725441045.625,-52.24609375,-1000,-23.4375,-43.9453125,NaN
1731725441049.5312,23.92578125,-748.046875,16.6015625,-87.40234375,NaN
1731725441053.4375,69.82421875,-321.2890625,37.59765625,-47.8515625,NaN
1731725441057.3438,-16.11328125,-639.6484375,37.59765625,32.71484375,NaN
1731725441061.25,-108.88671875,-836.42578125,62.5,-24.4140625,NaN
1731725441065.1562,-23.4375,-670.8984375,54.6875,-82.51953125,NaN
1731725441069.0625,46.38671875,-828.61328125,15.13671875,-76.66015625,NaN
1731725441072.9688,-40.0390625,-890.13671875,27.83203125,-34.66796875,NaN
1731725441076.875,-132.32421875,-677.734375,78.125,-30.2734375,NaN
1731725441080.7812,-57.6171875,-409.66796875,103.515625,-78.61328125,NaN
1731725441084.6875,23.4375,-564.453125,103.515625,-63.96484375,NaN
1731725441088.5938,-30.2734375,-688.96484375,129.39453125,-8.7890625,NaN
1731725441092.5,-98.6328125,-355.46875,180.17578125,-14.6484375,NaN
1731725441096.4062,-72.265625,-260.7421875,160.64453125,-66.89453125,NaN
1731725441100.3125,14.16015625,-704.1015625,85.9375,-85.9375,NaN
1731725441104.2188,-2.44140625,-859.86328125,69.3359375,-55.17578125,NaN
1731725441108.125,-75.68359375,-489.74609375,88.37890625,-13.671875,NaN
1731725441112.0312,-107.421875,-751.46484375,24.90234375,-35.15625,NaN
1731725441115.9375,-27.34375,-1000,-54.19921875,-69.3359375,NaN
1731725441119.8438,59.5703125,-922.36328125,-51.7578125,-46.38671875,NaN
1731725441123.75,-87.890625,-583.984375,1.46484375,-41.015625,NaN
1731725441127.6562,-165.52734375,-400.87890625,-38.0859375,-60.546875,NaN
1731725441131.5625,-56.15234375,-710.9375,-70.80078125,-99.609375,NaN
1731725441135.4688,26.85546875,-627.9296875,-52.734375,-114.74609375,NaN
1731725441139.375,-33.69140625,-336.42578125,-32.71484375,-39.55078125,NaN
1731725441143.2812,-125,-461.9140625,-37.59765625,-28.3203125,NaN
1731725441147.1875,-67.87109375,-724.609375,-40.0390625,-86.9140625,NaN
1731725441151.0938,40.0390625,-740.72265625,-22.94921875,-93.26171875,NaN
1731725441155,-12.6953125,-530.2734375,-6.34765625,-58.10546875,NaN
1731725441158.9062,-89.84375,-761.71875,-19.53125,-41.015625,NaN
1731725441162.8125,-78.61328125,-1000,-84.9609375,-47.8515625,NaN
1731725441166.7188,-27.34375,-878.41796875,-26.85546875,-73.2421875,NaN
1731725441170.625,-8.30078125,-550.78125,63.96484375,-42.48046875,NaN
1731725441174.5312,-99.12109375,-629.39453125,37.59765625,-3.41796875,NaN
1731725441178.4375,-128.90625,-990.72265625,27.83203125,-52.24609375,NaN
1731725441182.3438,-4.39453125,-908.69140625,62.01171875,-86.42578125,NaN
1731725441186.25,65.4296875,-519.53125,112.79296875,-48.33984375,NaN
1731725441190.1562,-29.78515625,-653.80859375,131.8359375,5.37109375,NaN
1731725441194.0625,-126.46484375,-932.12890625,125.9765625,-31.73828125,NaN
1731725441197.9688,-45.8984375,-707.51953125,104.00390625,-96.6796875,NaN
1731725441201.875,51.7578125,-519.53125,66.40625,-90.8203125,NaN
1731725441205.7812,1.46484375,-818.359375,-8.7890625,-9.27734375,NaN
1731725441209.6875,-43.45703125,-903.3203125,-40.52734375,21.484375,NaN
1731725441213.5938,-20.99609375,-666.9921875,-32.2265625,-55.6640625,NaN
1731725441217.5,22.94921875,-766.11328125,-79.58984375,-70.3125,NaN
1731725441221.4062,9.765625,-907.71484375,-129.8828125,-8.7890625,NaN
1731725441225.3125,-90.8203125,-796.875,-124.51171875,0,NaN
1731725441229.2188,-88.37890625,-437.01171875,-90.33203125,-41.50390625,NaN
1731725441233.125,50.29296875,-343.26171875,-121.09375,-73.73046875,NaN
1731725441237.0312,95.21484375,-571.77734375,-172.8515625,-32.2265625,NaN
1731725441240.9375,-8.7890625,-448.2421875,-237.79296875,-1.953125,NaN
1731725441244.8438,-67.3828125,-173.33984375,-298.828125,-39.55078125,NaN
1731725441248.75,-1.46484375,-261.23046875,-332.51953125,-65.91796875,NaN
1731725441252.6562,23.4375,-607.421875,-344.23828125,-72.75390625,NaN
1731725441256.5625,-42.96875,-517.578125,-321.77734375,-39.55078125,NaN
1731725441260.4688,-99.12109375,-180.17578125,-301.26953125,-31.73828125,NaN
1731725441264.375,-45.8984375,-354.98046875,-320.3125,-81.0546875,NaN
1731725441268.2812,51.7578125,-727.5390625,-341.796875,-83.49609375,NaN
1731725441272.1875,-12.6953125,-746.58203125,-318.84765625,-35.64453125,NaN
1731725441276.0938,-140.625,-437.01171875,-301.7578125,-23.92578125,NaN
1731725441280,-105.46875,-607.421875,-354.00390625,-40.52734375,NaN
1731725441283.9062,-7.8125,-847.16796875,-375,-77.1484375,NaN
1731725441287.8125,-25.390625,-524.4140625,-318.84765625,-66.89453125,NaN
1731725441291.7188,-112.3046875,-339.35546875,-288.0859375,-17.578125,NaN
1731725441295.625,-125.48828125,-581.0546875,-308.10546875,-47.8515625,NaN
1731725441299.5312,-35.64453125,-1000,-343.75,-87.890625,NaN
1731725441303.4375,16.11328125,-926.7578125,-322.265625,-53.22265625,NaN
1731725441307.3438,-97.16796875,-605.46875,-292.48046875,-19.53125,NaN
1731725441311.25,-154.296875,-775.87890625,-335.44921875,-43.9453125,NaN
1731725441315.1562,-52.734375,-911.1328125,-345.21484375,-82.51953125,NaN
1731725441319.0625,20.99609375,-572.265625,-288.0859375,-96.19140625,NaN
1731725441322.9688,-31.73828125,-423.828125,-293.9453125,-39.55078125,NaN
1731725441326.875,-106.93359375,-695.80078125,-313.96484375,-19.53125,NaN
1731725441330.7812,-66.89453125,-974.12109375,-322.265625,-75.1953125,NaN
1731725441334.6875,12.6953125,-708.0078125,-312.5,-92.7734375,NaN
1731725441338.5938,-29.296875,-518.5546875,-318.359375,-37.109375,NaN
1731725441342.5,-118.65234375,-857.91015625,-352.5390625,-18.06640625,NaN
1731725441346.4062,-83.49609375,-1000,-366.69921875,-59.5703125,NaN
1731725441350.3125,-7.8125,-970.703125,-364.74609375,-95.21484375,NaN
1731725441354.2188,-6.34765625,-841.796875,-368.1640625,-54.19921875,NaN
1731725441358.125,-83.0078125,-933.59375,-403.80859375,-1.953125,NaN
1731725441362.0312,-152.34375,-910.15625,-416.9921875,-49.31640625,NaN
1731725441365.9375,-64.94140625,-811.5234375,-446.2890625,-115.234375,NaN
1731725441369.8438,17.08984375,-969.7265625,-497.55859375,-79.58984375,NaN
1731725441373.75,-51.26953125,-892.578125,-501.953125,-8.30078125,NaN
1731725441377.6562,-133.30078125,-647.94921875,-494.62890625,-34.1796875,NaN
1731725441381.5625,-47.8515625,-655.2734375,-527.34375,-96.19140625,NaN
1731725441385.4688,30.76171875,-792.96875,-542.48046875,-72.75390625,NaN
1731725441389.375,-4.8828125,-975.09765625,-550.29296875,15.625,NaN
1731725441393.2812,-50.29296875,-997.0703125,-553.7109375,4.39453125,NaN
1731725441397.1875,-64.453125,-980.46875,-561.5234375,-72.75390625,NaN
1731725441401.0938,50.29296875,-1000,-616.69921875,-72.75390625,NaN
1731725441405,36.1328125,-909.1796875,-602.05078125,-13.671875,NaN
1731725441408.9062,-109.375,-541.9921875,-515.13671875,0.48828125,NaN
1731725441412.8125,-79.1015625,-442.87109375,-537.59765625,-42.96875,NaN
1731725441416.7188,66.40625,-845.703125,-596.6796875,-42.48046875,NaN
1731725441420.625,53.7109375,-803.7109375,-562.5,-10.7421875,NaN
1731725441424.5312,-68.359375,-191.40625,-508.7890625,-6.8359375,NaN
1731725441428.4375,-88.8671875,-244.62890625,-556.640625,-49.31640625,NaN
1731725441432.3438,0,-588.8671875,-567.3828125,-92.28515625,NaN
1731725441436.25,59.5703125,-391.11328125,-547.8515625,-79.58984375,NaN
1731725441440.1562,-35.64453125,-550.29296875,-564.453125,-7.32421875,NaN
1731725441444.0625,-108.3984375,-867.67578125,-567.3828125,-7.8125,NaN
1731725441447.9688,-11.71875,-974.609375,-607.421875,-44.43359375,NaN
1731725441451.875,47.8515625,-829.1015625,-578.61328125,-58.59375,NaN
1731725441455.7812,-43.9453125,-259.765625,-507.32421875,-50.29296875,NaN
1731725441459.6875,-134.765625,-326.66015625,-526.3671875,-8.7890625,NaN
1731725441463.5938,-87.40234375,-540.52734375,-525.87890625,-61.03515625,NaN
1731725441467.5,47.8515625,-293.9453125,-499.51171875,-109.375,NaN
1731725441471.4062,13.18359375,-62.98828125,-479.00390625,-46.38671875,NaN
1731725441475.3125,-84.9609375,-471.19140625,-512.6953125,11.23046875,NaN
1731725441479.2188,-83.49609375,-789.0625,-509.27734375,-17.578125,NaN
1731725441483.125,-5.37109375,-596.6796875,-475.09765625,-78.61328125,NaN
1731725441487.0312,26.85546875,-915.52734375,-463.8671875,-50.78125,NaN
1731725441490.9375,-45.8984375,-1000,-471.19140625,12.6953125,NaN
1731725441494.8438,-85.9375,-946.77734375,-464.35546875,-14.16015625,NaN
1731725441498.75,-60.05859375,-562.5,-383.7890625,-85.9375,NaN
1731725441502.6562,0,-455.078125,-390.625,-49.8046875,NaN
1731725441506.5625,-39.55078125,-861.81640625,-410.15625,18.06640625,NaN
1731725441510.4688,-106.4453125,-764.6484375,-391.11328125,4.39453125,NaN
1731725441514.375,-71.2890625,-573.73046875,-378.90625,-83.49609375,NaN
1731725441518.2812,31.25,-629.8828125,-372.55859375,-104.98046875,NaN
1731725441522.1875,-15.625,-629.8828125,-343.26171875,-44.43359375,NaN
1731725441526.0938,-129.39453125,-432.12890625,-326.171875,-32.71484375,NaN
1731725441530,-83.984375,-471.6796875,-357.421875,-57.12890625,NaN
1731725441533.9062,10.25390625,-887.6953125,-384.765625,-66.89453125,NaN
1731725441537.8125,2.9296875,-1000,-394.04296875,-2.44140625,NaN
1731725441541.7188,-99.12109375,-766.11328125,-349.12109375,15.13671875,NaN
1731725441545.625,-126.953125,-486.81640625,-331.54296875,-59.5703125,NaN
1731725441549.5312,-26.3671875,-705.56640625,-370.60546875,-89.35546875,NaN
1731725441553.4375,22.4609375,-791.015625,-362.79296875,-62.01171875,NaN
1731725441557.3438,-68.84765625,-538.57421875,-329.1015625,-16.11328125,NaN
1731725441561.25,-121.09375,-789.0625,-349.12109375,-22.4609375,NaN
1731725441565.1562,-37.59765625,-1000,-430.6640625,-74.21875,NaN
1731725441569.0625,18.06640625,-963.37890625,-449.70703125,-63.96484375,NaN
1731725441572.9688,-52.24609375,-832.51953125,-386.71875,-11.71875,NaN
1731725441576.875,-122.55859375,-830.078125,-382.32421875,-13.18359375,NaN
1731725441580.7812,-58.59375,-981.93359375,-409.66796875,-53.7109375,NaN
1731725441584.6875,17.578125,-959.9609375,-402.34375,-73.2421875,NaN
1731725441588.5938,-38.57421875,-709.9609375,-343.26171875,-57.6171875,NaN
1731725441592.5,-141.6015625,-645.01953125,-357.91015625,-24.4140625,NaN
1731725441596.4062,-82.51953125,-884.765625,-388.18359375,-47.8515625,NaN
1731725441600.3125,24.90234375,-1000,-375,-70.80078125,NaN
1731725441604.2188,-13.18359375,-789.0625,-350.09765625,-43.45703125,NaN
1731725441608.125,-76.171875,-488.76953125,-348.14453125,-9.27734375,NaN
1731725441612.0312,-79.58984375,-704.58984375,-362.3046875,-42.96875,NaN
1731725441615.9375,-11.23046875,-1000,-389.16015625,-95.21484375,NaN
1731725441619.8438,23.4375,-851.07421875,-387.20703125,-78.125,NaN
1731725441623.75,-62.01171875,-484.86328125,-367.1875,-45.41015625,NaN
1731725441627.6562,-102.05078125,-842.28515625,-455.56640625,-17.08984375,NaN
1731725441631.5625,-48.33984375,-867.67578125,-428.22265625,-72.75390625,NaN
1731725441635.4688,42.96875,-201.66015625,-352.05078125,-106.93359375,NaN
1731725441639.375,-2.44140625,-90.33203125,-397.4609375,-18.06640625,NaN
1731725441643.2812,-117.67578125,-406.25,-416.9921875,-12.20703125,NaN
1731725441647.1875,-50.29296875,-416.9921875,-410.15625,-66.40625,NaN
1731725441651.0938,71.77734375,-285.15625,-396.97265625,-78.125,NaN
1731725441655,21.484375,-425.29296875,-375.9765625,-18.5546875,NaN
1731725441658.9062,-109.375,-510.25390625,-342.7734375,12.20703125,NaN
1731725441662.8125,-76.171875,-293.45703125,-319.82421875,-64.453125,NaN
1731725441666.7188,53.7109375,-271.97265625,-338.37890625,-62.01171875,NaN
1731725441670.625,32.2265625,-623.53515625,-357.421875,13.18359375,NaN
1731725441674.5312,-73.2421875,-999.51171875,-364.2578125,16.6015625,NaN
1731725441678.4375,-95.703125,-1000,-365.234375,-40.0390625,NaN
1731725441682.3438,-4.8828125,-823.2421875,-346.19140625,-75.1953125,NaN
1731725441686.25,67.87109375,-853.02734375,-392.08984375,-26.85546875,NaN
1731725441690.1562,-34.66796875,-819.3359375,-375,6.8359375,NaN
1731725441694.0625,-128.90625,-356.93359375,-300.29296875,-24.4140625,NaN
1731725441697.9688,-43.45703125,-399.90234375,-344.7265625,-68.84765625,NaN
1731725441701.875,38.57421875,-841.30859375,-388.18359375,-52.24609375,NaN
1731725441705.7812,-40.0390625,-769.04296875,-337.40234375,-7.32421875,NaN
1731725441709.6875,-149.90234375,-353.02734375,-272.4609375,-38.57421875,NaN
1731725441713.5938,-99.12109375,-543.45703125,-294.921875,-79.1015625,NaN
1731725441717.5,-3.90625,-763.18359375,-294.921875,-81.0546875,NaN
1731725441721.4062,-20.99609375,-914.0625,-283.69140625,-40.52734375,NaN
1731725441725.3125,-125.9765625,-876.46484375,-267.578125,-1.953125,NaN
1731725441729.2188,-113.28125,-782.2265625,-288.57421875,-22.94921875,NaN
1731725441733.125,2.9296875,-1000,-335.44921875,-64.453125,NaN
1731725441737.0312,10.7421875,-734.375,-280.76171875,-61.03515625,NaN
1731725441740.9375,-95.703125,-305.6640625,-258.7890625,-18.06640625,NaN
1731725441744.8438,-138.671875,-610.83984375,-322.265625,-32.71484375,NaN
1731725441748.75,-25.390625,-964.35546875,-333.49609375,-85.44921875,NaN
1731725441752.6562,35.64453125,-766.11328125,-270.5078125,-76.171875,NaN
1731725441756.5625,-41.50390625,-610.3515625,-264.6484375,-19.04296875,NaN
1731725441760.4688,-107.421875,-746.09375,-300.78125,-10.7421875,NaN
1731725441764.375,-59.08203125,-970.21484375,-329.1015625,-46.875,NaN
1731725441768.2812,19.53125,-996.09375,-313.96484375,-66.89453125,NaN
1731725441772.1875,-29.78515625,-989.74609375,-273.4375,-47.36328125,NaN
1731725441776.0938,-115.72265625,-1000,-313.96484375,-10.7421875,NaN
1731725441780,-90.33203125,-964.35546875,-330.56640625,-40.0390625,NaN
1731725441783.9062,2.44140625,-899.4140625,-264.16015625,-101.07421875,NaN
1731725441787.8125,15.13671875,-966.30859375,-286.1328125,-46.875,NaN
1731725441791.7188,-85.44921875,-1000,-348.14453125,16.6015625,NaN
1731725441795.625,-120.1171875,-837.890625,-366.69921875,-53.7109375,NaN
1731725441799.5312,-33.69140625,-565.91796875,-388.18359375,-112.79296875,NaN
1731725441803.4375,21.97265625,-702.63671875,-448.2421875,-52.734375,NaN
1731725441807.3438,-54.19921875,-882.8125,-454.58984375,-2.44140625,NaN
1731725441811.25,-104.4921875,-815.91796875,-473.14453125,-20.01953125,NaN
1731725441815.1562,-4.8828125,-956.0546875,-513.671875,-52.734375,NaN
1731725441819.0625,40.52734375,-1000,-519.04296875,-55.17578125,NaN
1731725441822.9688,-37.59765625,-980.95703125,-540.0390625,-24.90234375,NaN
1731725441826.875,-108.3984375,-983.3984375,-509.765625,-25.87890625,NaN
1731725441830.7812,-62.5,-900.390625,-476.5625,-76.66015625,NaN
1731725441834.6875,36.1328125,-912.109375,-476.07421875,-84.47265625,NaN
1731725441838.5938,43.45703125,-881.34765625,-466.796875,-0.48828125,NaN
1731725441842.5,-83.0078125,-777.83203125,-519.04296875,29.296875,NaN
1731725441846.4062,-105.95703125,-935.546875,-604.98046875,-44.921875,NaN
1731725441850.3125,23.4375,-1000,-662.109375,-72.75390625,NaN
1731725441854.2188,24.90234375,-843.26171875,-650.87890625,-16.6015625,NaN
1731725441858.125,-97.16796875,-653.80859375,-630.859375,14.6484375,NaN
1731725441862.0312,-82.51953125,-937.01171875,-671.875,-38.0859375,NaN
1731725441865.9375,-0.9765625,-1000,-714.84375,-63.96484375,NaN
1731725441869.8438,-3.90625,-974.609375,-709.47265625,-42.96875,NaN
1731725441873.75,-86.42578125,-794.921875,-630.37109375,-29.296875,NaN
1731725441877.6562,-133.7890625,-631.8359375,-640.625,-36.62109375,NaN
1731725441881.5625,-16.11328125,-882.32421875,-675.29296875,-65.4296875,NaN
1731725441885.4688,48.33984375,-887.6953125,-663.57421875,-75.1953125,NaN
1731725441889.375,-19.04296875,-443.84765625,-637.20703125,-15.13671875,NaN
1731725441893.2812,-135.25390625,-492.1875,-677.734375,-4.39453125,NaN
1731725441897.1875,-142.578125,-856.4453125,-702.63671875,-94.23828125,NaN
1731725441901.0938,-26.3671875,-768.5546875,-687.98828125,-119.62890625,NaN
1731725441905,-25.87890625,-776.85546875,-677.24609375,-44.43359375,NaN
1731725441908.9062,-118.65234375,-918.9453125,-631.8359375,-0.48828125,NaN
1731725441912.8125,-116.69921875,-1000,-672.36328125,-7.32421875,NaN
1731725441916.7188,16.6015625,-847.16796875,-627.9296875,-18.5546875,NaN
1731725441920.625,43.45703125,-456.54296875,-510.7421875,-27.83203125,NaN
1731725441924.5312,-111.328125,-577.1484375,-530.2734375,-19.53125,NaN
1731725441928.4375,-130.859375,-926.7578125,-539.0625,5.859375,NaN
1731725441932.3438,-17.578125,-724.609375,-487.3046875,-50.29296875,NaN
1731725441936.25,23.4375,-341.30859375,-451.171875,-66.89453125,NaN
1731725441940.1562,-41.50390625,-523.92578125,-441.40625,30.76171875,NaN
1731725441944.0625,-116.69921875,-859.86328125,-419.43359375,22.94921875,NaN
1731725441947.9688,-65.4296875,-642.08984375,-383.30078125,-67.87109375,NaN
1731725441951.875,22.4609375,-436.03515625,-358.3984375,-75.68359375,NaN
1731725441955.7812,-5.859375,-761.23046875,-353.515625,14.6484375,NaN
1731725441959.6875,-100.5859375,-977.5390625,-339.35546875,32.71484375,NaN
1731725441963.5938,-72.265625,-822.265625,-291.50390625,-54.19921875,NaN
1731725441967.5,28.80859375,-403.80859375,-238.28125,-86.9140625,NaN
1731725441971.4062,5.859375,-594.23828125,-263.671875,-19.53125,NaN
1731725441975.3125,-109.375,-933.59375,-257.8125,-2.44140625,NaN
1731725441979.2188,-101.07421875,-563.4765625,-205.078125,-45.8984375,NaN
1731725441983.125,34.66796875,-548.828125,-227.05078125,-68.84765625,NaN
1731725441987.0312,7.32421875,-762.6953125,-218.26171875,-55.17578125,NaN
1731725441990.9375,-102.05078125,-566.89453125,-186.03515625,-25.390625,NaN
1731725441994.8438,-112.3046875,-417.48046875,-195.80078125,-38.0859375,NaN
1731725441998.75,-23.4375,-578.125,-228.02734375,-74.21875,NaN
1731725442002.6562,27.34375,-870.60546875,-225.09765625,-70.80078125,NaN
1731725442006.5625,-68.84765625,-923.828125,-183.10546875,-28.80859375,NaN
1731725442010.4688,-143.5546875,-516.11328125,-157.2265625,-30.2734375,NaN
1731725442014.375,-60.05859375,-567.3828125,-196.77734375,-62.98828125,NaN
1731725442018.2812,39.0625,-969.7265625,-252.9296875,-49.31640625,NaN
1731725442022.1875,-19.53125,-816.89453125,-208.49609375,2.44140625,NaN
1731725442026.0938,-106.93359375,-464.35546875,-173.828125,7.8125,NaN
1731725442030,-78.125,-634.765625,-224.12109375,-68.84765625,NaN
1731725442033.9062,9.765625,-813.4765625,-233.3984375,-89.35546875,NaN
1731725442037.8125,5.37109375,-516.6015625,-203.125,-35.15625,NaN
1731725442041.7188,-93.26171875,-208.0078125,-191.40625,-1.46484375,NaN
1731725442045.625,-107.91015625,-485.83984375,-234.375,-12.20703125,NaN
1731725442049.5312,-13.18359375,-1000,-260.25390625,-56.15234375,NaN
1731725442053.4375,25.390625,-799.31640625,-205.56640625,-54.19921875,NaN
1731725442057.3438,-68.84765625,-282.71484375,-172.8515625,-5.859375,NaN
1731725442061.25,-108.3984375,-650.87890625,-239.2578125,-18.5546875,NaN
1731725442065.1562,-21.97265625,-966.30859375,-242.67578125,-54.19921875,NaN
1731725442069.0625,24.4140625,-398.4375,-153.3203125,-84.9609375,NaN
1731725442072.9688,-47.36328125,-181.640625,-174.31640625,-37.109375,NaN
1731725442076.875,-94.7265625,-761.23046875,-219.23828125,2.9296875,NaN
1731725442080.7812,-56.15234375,-684.08203125,-187.5,-58.59375,NaN
1731725442084.6875,-32.71484375,-93.26171875,-165.52734375,-62.01171875,NaN
1731725442088.5938,-43.45703125,11.71875,-190.91796875,-36.62109375,NaN
1731725442092.5,-103.02734375,-308.59375,-229.00390625,-32.2265625,NaN
1731725442096.4062,-68.359375,-850.09765625,-253.41796875,-59.08203125,NaN
1731725442100.3125,18.5546875,-718.75,-215.33203125,-67.3828125,NaN
1731725442104.2188,-4.8828125,-217.7734375,-208.984375,-25.390625,NaN
1731725442108.125,-105.95703125,-657.2265625,-264.16015625,-5.859375,NaN
1731725442112.0312,-129.39453125,-869.140625,-243.65234375,-46.38671875,NaN
1731725442115.9375,-36.1328125,-524.4140625,-242.1875,-81.54296875,NaN
1731725442119.8438,15.13671875,-690.4296875,-277.34375,-34.1796875,NaN
1731725442123.75,-74.21875,-603.515625,-264.6484375,-11.71875,NaN
1731725442127.6562,-117.1875,-322.265625,-255.859375,-22.4609375,NaN
1731725442131.5625,-12.20703125,-608.3984375,-279.78515625,-48.828125,NaN
1731725442135.4688,29.296875,-976.07421875,-315.4296875,-59.5703125,NaN
1731725442139.375,-37.109375,-839.84375,-299.31640625,-3.41796875,NaN
1731725442143.2812,-90.8203125,-845.703125,-270.99609375,-0.48828125,NaN
1731725442147.1875,-47.8515625,-944.82421875,-255.37109375,-68.359375,NaN
1731725442151.0938,17.578125,-924.8046875,-278.80859375,-72.265625,NaN
1731725442155,0,-910.64453125,-271.484375,-32.2265625,NaN
1731725442158.9062,-116.2109375,-536.62109375,-167.96875,-14.6484375,NaN
1731725442162.8125,-133.30078125,-318.359375,-154.296875,-40.0390625,NaN
1731725442166.7188,-9.765625,-611.328125,-169.43359375,-73.73046875,NaN
1731725442170.625,1.953125,-563.96484375,-156.25,-31.25,NaN
1731725442174.5312,-88.8671875,-340.33203125,-166.50390625,-13.18359375,NaN
1731725442178.4375,-137.20703125,-562.01171875,-197.75390625,-31.25,NaN
1731725442182.3438,-43.45703125,-803.22265625,-189.94140625,-69.3359375,NaN
1731725442186.25,28.80859375,-773.4375,-153.80859375,-72.265625,NaN
1731725442190.1562,-58.10546875,-834.9609375,-152.34375,-27.34375,NaN
1731725442194.0625,-96.6796875,-986.81640625,-159.1796875,-13.18359375,NaN
1731725442197.9688,-8.30078125,-1000,-192.3828125,-24.90234375,NaN
1731725442201.875,23.4375,-879.39453125,-167.96875,-68.359375,NaN
1731725442205.7812,-38.57421875,-462.890625,-96.6796875,-45.8984375,NaN
1731725442209.6875,-108.88671875,-531.25,-132.32421875,8.30078125,NaN
1731725442213.5938,-60.546875,-872.0703125,-163.0859375,-22.94921875,NaN
1731725442217.5,51.26953125,-647.4609375,-129.8828125,-47.36328125,NaN
1731725442221.4062,11.71875,-299.8046875,-123.53515625,-12.20703125,NaN
1731725442225.3125,-100.09765625,-566.40625,-163.57421875,14.16015625,NaN
1731725442229.2188,-119.62890625,-793.9453125,-170.8984375,-5.37109375,NaN
1731725442233.125,-2.9296875,-574.21875,-155.76171875,-45.8984375,NaN
1731725442237.0312,28.80859375,-689.453125,-152.34375,-34.1796875,NaN
1731725442240.9375,-24.4140625,-825.1953125,-177.734375,37.109375,NaN
1731725442244.8438,-64.453125,-986.81640625,-186.03515625,32.71484375,NaN
1731725442248.75,-42.48046875,-826.171875,-118.65234375,-79.58984375,NaN
1731725442252.6562,7.8125,-260.25390625,-98.6328125,-64.453125,NaN
1731725442256.5625,-69.3359375,-524.4140625,-133.7890625,8.30078125,NaN
1731725442260.4688,-139.16015625,-765.625,-127.9296875,-25.87890625,NaN
1731725442264.375,-51.7578125,-427.734375,-96.19140625,-84.47265625,NaN
1731725442268.2812,39.55078125,-219.23828125,-70.3125,-76.171875,NaN
1731725442272.1875,-41.9921875,-261.71875,-59.08203125,-34.1796875,NaN
1731725442276.0938,-128.41796875,-348.14453125,-72.75390625,-32.2265625,NaN
1731725442280,-77.63671875,-408.69140625,-104.4921875,-49.31640625,NaN
1731725442283.9062,-2.9296875,-772.4609375,-128.90625,-69.82421875,NaN
1731725442287.8125,-11.23046875,-863.76953125,-102.5390625,-50.78125,NaN
1731725442291.7188,-115.234375,-605.95703125,-89.35546875,0,NaN
1731725442295.625,-115.72265625,-493.65234375,-114.2578125,-42.48046875,NaN
1731725442299.5312,-15.13671875,-509.765625,-131.34765625,-93.26171875,NaN
1731725442303.4375,12.20703125,-893.06640625,-198.2421875,-33.203125,NaN
1731725442307.3438,-73.73046875,-776.85546875,-135.25390625,13.18359375,NaN
1731725442311.25,-102.5390625,-299.8046875,-87.40234375,-18.06640625,NaN
1731725442315.1562,-23.4375,-755.859375,-197.75390625,-47.36328125,NaN
1731725442319.0625,12.6953125,-934.5703125,-195.3125,-51.26953125,NaN
1731725442322.9688,-60.546875,-645.99609375,-146.97265625,-16.11328125,NaN
1731725442326.875,-114.74609375,-830.078125,-169.43359375,-11.23046875,NaN
1731725442330.7812,-47.8515625,-1000,-206.54296875,-48.33984375,NaN
1731725442334.6875,31.25,-889.16015625,-191.40625,-57.6171875,NaN
1731725442338.5938,-26.85546875,-622.0703125,-125,-33.69140625,NaN
1731725442342.5,-115.234375,-630.37109375,-140.13671875,-6.8359375,NaN
1731725442346.4062,-71.2890625,-916.015625,-171.875,-50.29296875,NaN
1731725442350.3125,17.08984375,-883.30078125,-125.9765625,-92.7734375,NaN
1731725442354.2188,-1.46484375,-608.3984375,-96.19140625,-53.22265625,NaN
1731725442358.125,-100.09765625,-680.6640625,-119.62890625,-1.46484375,NaN
1731725442362.0312,-92.7734375,-887.20703125,-121.58203125,-34.1796875,NaN
1731725442365.9375,22.94921875,-1000,-112.79296875,-87.890625,NaN
1731725442369.8438,14.6484375,-905.2734375,-75.68359375,-51.26953125,NaN
1731725442373.75,-83.49609375,-712.40234375,-39.55078125,-23.4375,NaN
1731725442377.6562,-118.1640625,-902.83203125,-91.30859375,-38.0859375,NaN
1731725442381.5625,-55.17578125,-1000,-73.73046875,-73.2421875,NaN
1731725442385.4688,12.20703125,-873.046875,-15.625,-90.8203125,NaN
1731725442389.375,-28.80859375,-834.47265625,-28.3203125,-36.62109375,NaN
1731725442393.2812,-80.56640625,-1000,-40.52734375,4.8828125,NaN
1731725442397.1875,-62.98828125,-954.58984375,-10.7421875,-37.59765625,NaN
1731725442401.0938,4.8828125,-764.6484375,-9.27734375,-65.4296875,NaN
1731725442405,-0.48828125,-876.46484375,-48.828125,-2.44140625,NaN
1731725442408.9062,-106.93359375,-900.390625,-33.203125,12.6953125,NaN
1731725442412.8125,-108.88671875,-799.31640625,-28.80859375,-62.01171875,NaN
1731725442416.7188,9.765625,-957.51953125,-51.26953125,-85.9375,NaN
1731725442420.625,37.59765625,-996.09375,-72.75390625,-35.64453125,NaN
1731725442424.5312,-71.77734375,-1000,-76.171875,27.34375,NaN
1731725442428.4375,-116.69921875,-907.2265625,-43.9453125,-22.4609375,NaN
1731725442432.3438,-30.76171875,-541.015625,-37.109375,-81.0546875,NaN
1731725442436.25,23.4375,-704.58984375,-74.70703125,-29.78515625,NaN
1731725442440.1562,-66.40625,-909.1796875,-70.3125,7.32421875,NaN
1731725442444.0625,-83.49609375,-610.83984375,-13.18359375,-26.85546875,NaN
1731725442447.9688,-22.4609375,-640.13671875,-29.296875,-63.4765625,NaN
1731725442451.875,-31.73828125,-822.265625,-22.4609375,-56.15234375,NaN
1731725442455.7812,-87.40234375,-618.65234375,-10.25390625,-41.50390625,NaN
1731725442459.6875,-166.50390625,-301.26953125,-30.76171875,-61.03515625,NaN
1731725442463.5938,-97.65625,-494.62890625,-69.82421875,-89.84375,NaN
1731725442467.5,17.578125,-770.5078125,-71.2890625,-84.47265625,NaN
1731725442471.4062,-26.3671875,-893.5546875,-49.31640625,-35.64453125,NaN
1731725442475.3125,-154.78515625,-910.64453125,-41.9921875,-37.59765625,NaN
1731725442479.2188,-163.57421875,-913.57421875,-45.41015625,-102.5390625,NaN
1731725442483.125,-43.9453125,-1000,-109.86328125,-98.14453125,NaN
1731725442487.0312,-2.44140625,-874.0234375,-79.1015625,-46.875,NaN
1731725442490.9375,-119.140625,-412.59765625,-2.44140625,-30.76171875,NaN
1731725442494.8438,-167.96875,-552.734375,-60.05859375,-57.12890625,NaN
1731725442498.75,-75.68359375,-834.9609375,-97.65625,-89.84375,NaN
1731725442502.6562,-26.85546875,-558.10546875,-78.125,-70.3125,NaN
1731725442506.5625,-106.4453125,-367.67578125,-81.54296875,-36.62109375,NaN
1731725442510.4688,-163.0859375,-654.296875,-117.1875,-45.8984375,NaN
1731725442514.375,-89.84375,-936.5234375,-125.48828125,-105.46875,NaN
1731725442518.2812,-8.7890625,-960.9375,-104.98046875,-109.375,NaN
1731725442522.1875,-46.38671875,-883.7890625,-75.68359375,-39.0625,NaN
1731725442526.0938,-128.90625,-845.703125,-94.7265625,-9.765625,NaN
1731725442530,-92.28515625,-950.68359375,-104.98046875,-61.5234375,NaN
1731725442533.9062,-11.23046875,-935.05859375,-51.7578125,-103.515625,NaN
1731725442537.8125,-28.80859375,-652.34375,-41.015625,-64.453125,NaN
1731725442541.7188,-113.28125,-712.40234375,-97.16796875,1.46484375,NaN
1731725442545.625,-125,-932.6171875,-100.5859375,-29.78515625,NaN
1731725442549.5312,2.9296875,-684.08203125,-67.87109375,-92.28515625,NaN
1731725442553.4375,30.2734375,-611.328125,-81.0546875,-44.921875,NaN
1731725442557.3438,-99.12109375,-829.58984375,-80.56640625,0.48828125,NaN
1731725442561.25,-127.9296875,-921.875,-71.2890625,1.46484375,NaN
1731725442565.1562,-39.55078125,-958.0078125,-96.19140625,-48.828125,NaN
1731725442569.0625,33.69140625,-1000,-90.8203125,-63.4765625,NaN
1731725442572.9688,-20.01953125,-1000,-77.1484375,4.39453125,NaN
1731725442576.875,-144.53125,-870.1171875,-47.36328125,-1.46484375,NaN
1731725442580.7812,-86.42578125,-683.59375,-36.62109375,-45.8984375,NaN
1731725442584.6875,20.5078125,-745.1171875,-59.5703125,-29.78515625,NaN
1731725442588.5938,-5.859375,-909.66796875,-60.05859375,1.953125,NaN
1731725442592.5,-100.5859375,-979.98046875,-47.8515625,10.25390625,NaN
1731725442596.4062,-87.890625,-854.98046875,-64.94140625,-17.08984375,NaN
1731725442600.3125,41.50390625,-872.0703125,-109.375,-29.296875,NaN
1731725442604.2188,79.58984375,-871.58203125,-112.79296875,3.90625,NaN
1731725442608.125,-47.36328125,-433.10546875,-89.84375,27.34375,NaN
1731725442612.0312,-103.515625,-616.2109375,-145.99609375,-11.23046875,NaN
1731725442615.9375,32.2265625,-1000,-206.54296875,-32.71484375,NaN
1731725442619.8438,51.7578125,-930.6640625,-201.66015625,-19.53125,NaN
1731725442623.75,-76.171875,-436.5234375,-135.25390625,-2.9296875,NaN
1731725442627.6562,-102.5390625,-210.9375,-165.52734375,-0.9765625,NaN
1731725442631.5625,7.8125,-683.10546875,-220.21484375,-38.57421875,NaN
1731725442635.4688,64.94140625,-749.0234375,-200.1953125,-40.52734375,NaN
1731725442639.375,-22.4609375,-388.671875,-170.8984375,-1.953125,NaN
1731725442643.2812,-98.6328125,-318.359375,-187.01171875,35.64453125,NaN
1731725442647.1875,-61.5234375,-681.640625,-217.7734375,-9.765625,NaN
1731725442651.0938,34.66796875,-632.32421875,-214.84375,-70.3125,NaN
1731725442655,38.0859375,-245.1171875,-212.40234375,-8.7890625,NaN
1731725442658.9062,-74.21875,-583.0078125,-232.421875,42.48046875,NaN
1731725442662.8125,-74.70703125,-1000,-266.11328125,-8.30078125,NaN
1731725442666.7188,25.87890625,-783.69140625,-229.00390625,-58.10546875,NaN
1731725442670.625,24.90234375,-289.55078125,-197.265625,-22.94921875,NaN
1731725442674.5312,-65.4296875,-468.26171875,-250.9765625,13.671875,NaN
1731725442678.4375,-115.72265625,-900.390625,-265.625,-25.390625,NaN
1731725442682.3438,-37.109375,-693.84765625,-233.3984375,-77.1484375,NaN
1731725442686.25,21.484375,-280.2734375,-216.796875,-56.640625,NaN
1731725442690.1562,-47.8515625,-426.26953125,-243.1640625,9.765625,NaN
1731725442694.0625,-98.6328125,-702.63671875,-270.5078125,-4.8828125,NaN
1731725442697.9688,-31.25,-610.3515625,-261.71875,-47.8515625,NaN
1731725442701.875,11.71875,-649.90234375,-251.46484375,-29.296875,NaN
1731725442705.7812,-7.32421875,-791.9921875,-289.55078125,12.6953125,NaN
1731725442709.6875,-73.2421875,-1000,-309.08203125,15.625,NaN
1731725442713.5938,-101.07421875,-911.62109375,-253.41796875,-38.0859375,NaN
1731725442717.5,-11.71875,-553.22265625,-244.140625,-91.30859375,NaN
1731725442721.4062,0.9765625,-757.8125,-291.015625,-27.83203125,NaN
1731725442725.3125,-102.05078125,-853.02734375,-288.57421875,16.11328125,NaN
1731725442729.2188,-130.859375,-585.9375,-258.30078125,-50.78125,NaN
1731725442733.125,0.48828125,-646.484375,-280.76171875,-66.40625,NaN
1731725442737.0312,40.52734375,-791.50390625,-259.27734375,-20.99609375,NaN
1731725442740.9375,-78.125,-751.953125,-236.328125,-2.44140625,NaN
1731725442744.8438,-122.55859375,-595.21484375,-237.79296875,-33.203125,NaN
1731725442748.75,-21.97265625,-758.7890625,-262.6953125,-74.21875,NaN
1731725442752.6562,42.48046875,-982.91015625,-249.51171875,-72.265625,NaN
1731725442756.5625,-58.10546875,-804.6875,-208.984375,-16.11328125,NaN
1731725442760.4688,-130.37109375,-687.01171875,-230.95703125,17.578125,NaN
1731725442764.375,-48.828125,-950.68359375,-273.92578125,-34.66796875,NaN
1731725442768.2812,49.31640625,-1000,-297.36328125,-48.33984375,NaN
1731725442772.1875,-31.73828125,-792.48046875,-230.46875,-18.06640625,NaN
1731725442776.0938,-130.859375,-452.1484375,-184.5703125,-13.671875,NaN
1731725442780,-60.546875,-649.4140625,-224.12109375,-38.0859375,NaN
1731725442783.9062,20.5078125,-952.63671875,-233.3984375,-73.2421875,NaN
1731725442787.8125,-10.7421875,-731.4453125,-179.19921875,-34.1796875,NaN
1731725442791.7188,-95.703125,-300.29296875,-155.76171875,-8.30078125,NaN
1731725442795.625,-116.69921875,-540.0390625,-208.984375,-33.69140625,NaN
1731725442799.5312,-12.6953125,-1000,-208.49609375,-61.03515625,NaN
1731725442803.4375,51.26953125,-968.26171875,-154.78515625,-43.45703125,NaN
1731725442807.3438,-21.484375,-551.7578125,-107.421875,4.8828125,NaN
1731725442811.25,-77.1484375,-673.828125,-164.0625,5.37109375,NaN
1731725442815.1562,-43.9453125,-941.40625,-185.546875,-27.34375,NaN
1731725442819.0625,17.578125,-728.02734375,-111.81640625,-66.89453125,NaN
1731725442822.9688,-29.78515625,-478.02734375,-104.98046875,-17.578125,NaN
1731725442826.875,-81.54296875,-660.64453125,-135.7421875,23.92578125,NaN
1731725442830.7812,-35.15625,-655.2734375,-115.72265625,-41.9921875,NaN
1731725442834.6875,23.92578125,-122.0703125,-78.61328125,-66.40625,NaN
1731725442838.5938,12.6953125,-142.578125,-115.234375,-18.5546875,NaN
1731725442842.5,-62.5,-375,-136.71875,-13.671875,NaN
1731725442846.4062,-73.2421875,-754.8828125,-162.109375,-34.1796875,NaN
1731725442850.3125,-12.20703125,-577.1484375,-139.6484375,-68.359375,NaN
1731725442854.2188,1.46484375,19.53125,-113.76953125,-54.6875,NaN
1731725442858.125,-59.5703125,-547.36328125,-154.78515625,21.97265625,NaN
1731725442862.0312,-100.09765625,-591.796875,-106.4453125,-25.87890625,NaN
1731725442865.9375,-27.34375,82.03125,-78.125,-78.125,NaN
1731725442869.8438,22.4609375,-93.75,-102.5390625,-32.2265625,NaN
1731725442873.75,-73.73046875,-252.44140625,-99.12109375,-4.8828125,NaN
1731725442877.6562,-138.671875,-398.4375,-110.83984375,-42.96875,NaN
1731725442881.5625,-53.7109375,-320.3125,-112.79296875,-99.12109375,NaN
1731725442885.4688,63.96484375,-347.16796875,-136.23046875,-83.49609375,NaN
1731725442889.375,-5.859375,-636.71875,-155.76171875,-14.16015625,NaN
1731725442893.2812,-136.71875,-644.53125,-145.99609375,-5.37109375,NaN
1731725442897.1875,-115.72265625,-493.1640625,-150.87890625,-78.125,NaN
1731725442901.0938,-15.13671875,-643.06640625,-212.890625,-86.42578125,NaN
1731725442905,15.13671875,-826.171875,-201.171875,-11.23046875,NaN
1731725442908.9062,-99.12109375,-404.296875,-124.51171875,-33.203125,NaN
1731725442912.8125,-149.4140625,-434.5703125,-163.0859375,-84.47265625,NaN
1731725442916.7188,-41.015625,-732.421875,-172.8515625,-105.46875,NaN
1731725442920.625,-19.04296875,-698.73046875,-155.2734375,-84.47265625,NaN
1731725442924.5312,-120.60546875,-413.57421875,-144.04296875,-45.8984375,NaN
1731725442928.4375,-133.7890625,-481.93359375,-161.62109375,-70.80078125,NaN
1731725442932.3438,-47.8515625,-846.6796875,-185.05859375,-87.890625,NaN
1731725442936.25,-9.765625,-840.8203125,-178.7109375,-82.03125,NaN
1731725442940.1562,-105.46875,-752.9296875,-186.03515625,-73.2421875,NaN
1731725442944.0625,-160.15625,-822.75390625,-192.87109375,-80.56640625,NaN
1731725442947.9688,-77.1484375,-958.49609375,-257.32421875,-91.796875,NaN
1731725442951.875,-18.06640625,-923.33984375,-240.72265625,-108.3984375,NaN
1731725442955.7812,-84.9609375,-499.0234375,-169.921875,-83.0078125,NaN
1731725442959.6875,-147.4609375,-563.96484375,-228.515625,-56.15234375,NaN
1731725442963.5938,-109.86328125,-974.12109375,-270.99609375,-96.19140625,NaN
1731725442967.5,-48.828125,-944.3359375,-229.00390625,-126.953125,NaN
1731725442971.4062,-57.6171875,-751.953125,-199.21875,-115.72265625,NaN
1731725442975.3125,-115.234375,-858.3984375,-219.7265625,-52.734375,NaN
1731725442979.2188,-155.76171875,-1000,-212.890625,-69.82421875,NaN
1731725442983.125,-94.7265625,-905.76171875,-196.2890625,-125.48828125,NaN
1731725442987.0312,-40.52734375,-880.37109375,-185.546875,-93.26171875,NaN
1731725442990.9375,-98.14453125,-890.625,-197.75390625,-34.1796875,NaN
1731725442994.8438,-126.953125,-988.28125,-232.91015625,-50.78125,NaN
1731725442998.75,-43.45703125,-811.03515625,-180.6640625,-132.8125,NaN
1731725443002.6562,-30.76171875,-495.1171875,-173.828125,-103.02734375,NaN
1731725443006.5625,-125,-627.44140625,-187.5,-48.33984375,NaN
1731725443010.4688,-179.6875,-672.36328125,-193.359375,-85.9375,NaN
1731725443014.375,-112.79296875,-619.140625,-207.51953125,-125,NaN
1731725443018.2812,-5.37109375,-622.0703125,-210.44921875,-105.95703125,NaN
1731725443022.1875,-71.2890625,-706.54296875,-196.77734375,-52.734375,NaN
1731725443026.0938,-138.671875,-661.1328125,-182.12890625,-17.08984375,NaN
1731725443030,-102.05078125,-629.8828125,-199.21875,-92.28515625,NaN
1731725443033.9062,-80.078125,-872.55859375,-207.03125,-148.4375,NaN
1731725443037.8125,-79.58984375,-1000,-229.98046875,-87.890625,NaN
1731725443041.7188,-107.91015625,-830.56640625,-196.2890625,-65.91796875,NaN
1731725443045.625,-138.18359375,-505.37109375,-174.8046875,-109.375,NaN
1731725443049.5312,-119.62890625,-719.23828125,-217.7734375,-151.3671875,NaN
1731725443053.4375,-86.42578125,-862.3046875,-202.63671875,-127.9296875,NaN
1731725443057.3438,-166.50390625,-401.85546875,-166.015625,-94.23828125,NaN
1731725443061.25,-204.1015625,-163.57421875,-181.15234375,-112.79296875,NaN
1731725443065.1562,-85.44921875,-591.796875,-224.12109375,-141.11328125,NaN
1731725443069.0625,-52.734375,-755.859375,-206.0546875,-138.18359375,NaN
1731725443072.9688,-152.83203125,-165.52734375,-148.92578125,-122.55859375,NaN
1731725443076.875,-216.30859375,-102.5390625,-162.109375,-138.18359375,NaN
1731725443080.7812,-129.8828125,-717.7734375,-245.60546875,-144.04296875,NaN
1731725443084.6875,-43.9453125,-1000,-252.44140625,-140.13671875,NaN
1731725443088.5938,-130.859375,-550.78125,-156.25,-134.27734375,NaN
1731725443092.5,-206.0546875,-133.30078125,-157.71484375,-117.1875,NaN
1731725443096.4062,-149.90234375,-613.76953125,-195.80078125,-112.79296875,NaN
1731725443100.3125,-48.33984375,-671.875,-174.8046875,-118.65234375,NaN
1731725443104.2188,-31.25,-540.52734375,-165.0390625,-89.35546875,NaN
1731725443108.125,-130.859375,-632.32421875,-156.73828125,-64.453125,NaN
1731725443112.0312,-161.62109375,-739.2578125,-172.8515625,-97.65625,NaN
1731725443115.9375,-55.6640625,-802.24609375,-154.78515625,-118.65234375,NaN
1731725443119.8438,0.48828125,-536.1328125,-110.83984375,-76.171875,NaN
1731725443123.75,-82.51953125,-551.7578125,-115.72265625,-44.43359375,NaN
1731725443127.6562,-148.4375,-815.4296875,-136.71875,-61.5234375,NaN
1731725443131.5625,-62.98828125,-1000,-142.08984375,-103.515625,NaN
1731725443135.4688,34.1796875,-618.65234375,-119.62890625,-95.703125,NaN
1731725443139.375,-48.33984375,-543.9453125,-140.13671875,-2.9296875,NaN
1731725443143.2812,-139.6484375,-960.44921875,-181.640625,-11.71875,NaN
1731725443147.1875,-111.81640625,-862.3046875,-160.64453125,-114.74609375,NaN
1731725443151.0938,-38.0859375,-467.7734375,-152.83203125,-134.27734375,NaN
1731725443155,-41.50390625,-578.125,-183.10546875,-83.0078125,NaN
1731725443158.9062,-121.58203125,-749.0234375,-187.01171875,-30.2734375,NaN
1731725443162.8125,-114.74609375,-840.8203125,-202.1484375,-56.640625,NaN
1731725443166.7188,-28.3203125,-868.65234375,-198.2421875,-116.2109375,NaN
1731725443170.625,-5.859375,-831.54296875,-202.63671875,-76.66015625,NaN
1731725443174.5312,-117.1875,-1000,-209.47265625,-4.39453125,NaN
1731725443178.4375,-175.29296875,-925.78125,-159.1796875,-54.19921875,NaN
1731725443182.3438,-39.55078125,-611.328125,-150.390625,-117.1875,NaN
1731725443186.25,38.0859375,-776.3671875,-210.44921875,-65.4296875,NaN
1731725443190.1562,-55.17578125,-924.31640625,-218.75,-8.30078125,NaN
1731725443194.0625,-122.0703125,-597.16796875,-168.45703125,-28.80859375,NaN
1731725443197.9688,-62.98828125,-569.3359375,-196.77734375,-71.2890625,NaN
1731725443201.875,18.06640625,-744.140625,-211.42578125,-76.171875,NaN
1731725443205.7812,-52.734375,-569.82421875,-187.01171875,-51.26953125,NaN
1731725443209.6875,-121.58203125,-263.671875,-174.8046875,-53.7109375,NaN
1731725443213.5938,-63.96484375,-380.37109375,-199.70703125,-56.15234375,NaN
1731725443217.5,8.7890625,-736.328125,-216.30859375,-66.89453125,NaN
1731725443221.4062,13.671875,-838.37890625,-208.0078125,-39.0625,NaN
1731725443225.3125,-101.5625,-893.5546875,-202.63671875,6.34765625,NaN
1731725443229.2188,-103.02734375,-826.66015625,-178.7109375,-38.57421875,NaN
1731725443233.125,-15.625,-917.96875,-229.00390625,-102.05078125,NaN
1731725443237.0312,-19.04296875,-896.97265625,-213.8671875,-66.40625,NaN
1731725443240.9375,-109.375,-300.29296875,-134.27734375,-30.76171875,NaN
1731725443244.8438,-143.5546875,-265.13671875,-173.828125,-71.77734375,NaN
1731725443248.75,-47.36328125,-660.15625,-206.0546875,-124.0234375,NaN
1731725443252.6562,-1.953125,-454.58984375,-180.6640625,-121.58203125,NaN
1731725443256.5625,-71.77734375,-237.3046875,-179.19921875,-71.2890625,NaN
1731725443260.4688,-143.5546875,-577.63671875,-206.0546875,-71.2890625,NaN
1731725443264.375,-104.00390625,-724.12109375,-209.47265625,-118.1640625,NaN
1731725443268.2812,-38.0859375,-762.6953125,-213.37890625,-115.72265625,NaN
1731725443272.1875,-90.8203125,-608.88671875,-178.22265625,-62.5,NaN
1731725443276.0938,-187.98828125,-571.2890625,-221.6796875,-56.640625,NaN
1731725443280,-148.4375,-1000,-271.97265625,-87.40234375,NaN
1731725443283.9062,-45.8984375,-770.01953125,-181.640625,-105.46875,NaN
1731725443287.8125,-54.6875,-336.42578125,-171.38671875,-88.8671875,NaN
1731725443291.7188,-123.046875,-654.296875,-200.68359375,-62.98828125,NaN
1731725443295.625,-153.3203125,-891.11328125,-196.77734375,-99.12109375,NaN
1731725443299.5312,-83.0078125,-552.734375,-181.15234375,-153.3203125,NaN
1731725443303.4375,-50.78125,-423.828125,-187.5,-122.0703125,NaN
1731725443307.3438,-145.01953125,-706.54296875,-204.58984375,-80.56640625,NaN
1731725443311.25,-182.12890625,-844.7265625,-211.42578125,-83.49609375,NaN
1731725443315.1562,-104.00390625,-934.08203125,-245.1171875,-131.34765625,NaN
1731725443319.0625,-17.08984375,-1000,-232.421875,-128.41796875,NaN
1731725443322.9688,-61.5234375,-993.1640625,-237.79296875,-51.26953125,NaN
1731725443326.875,-191.89453125,-891.11328125,-235.3515625,-73.2421875,NaN
1731725443330.7812,-147.94921875,-679.19921875,-211.9140625,-153.3203125,NaN
1731725443334.6875,-38.57421875,-842.28515625,-226.07421875,-120.1171875,NaN
1731725443338.5938,-50.29296875,-878.90625,-213.37890625,-45.8984375,NaN
1731725443342.5,-127.9296875,-558.59375,-187.98828125,-36.1328125,NaN
1731725443346.4062,-145.5078125,-698.73046875,-200.1953125,-85.9375,NaN
1731725443350.3125,-16.11328125,-1000,-219.7265625,-127.44140625,NaN
1731725443354.2188,-0.48828125,-788.57421875,-186.5234375,-99.609375,NaN
1731725443358.125,-131.34765625,-489.2578125,-171.38671875,-38.0859375,NaN
1731725443362.0312,-145.99609375,-790.0390625,-193.359375,-71.2890625,NaN
1731725443365.9375,-25.390625,-1000,-229.00390625,-101.5625,NaN
1731725443369.8438,-3.90625,-873.53515625,-212.40234375,-65.4296875,NaN
1731725443373.75,-118.1640625,-265.13671875,-125,-72.75390625,NaN
1731725443377.6562,-126.953125,-33.69140625,-149.4140625,-68.84765625,NaN
1731725443381.5625,-21.97265625,-433.59375,-186.5234375,-93.26171875,NaN
1731725443385.4688,15.13671875,-327.63671875,-169.43359375,-79.58984375,NaN
1731725443389.375,-73.2421875,-69.82421875,-179.19921875,-19.53125,NaN
1731725443393.2812,-128.41796875,-463.37890625,-210.44921875,-14.6484375,NaN
1731725443397.1875,-43.9453125,-862.79296875,-215.8203125,-48.828125,NaN
1731725443401.0938,35.64453125,-558.59375,-197.265625,-96.19140625,NaN
1731725443405,14.6484375,-137.20703125,-199.21875,-52.734375,NaN
1731725443408.9062,-62.01171875,-412.59765625,-209.9609375,9.27734375,NaN
1731725443412.8125,-31.73828125,-940.91796875,-259.27734375,-4.8828125,NaN
1731725443416.7188,13.671875,-781.73828125,-237.79296875,-46.38671875,NaN
1731725443420.625,8.7890625,-177.734375,-170.8984375,-47.8515625,NaN
1731725443424.5312,-49.31640625,-218.26171875,-192.87109375,-4.8828125,NaN
1731725443428.4375,-94.7265625,-425.78125,-205.56640625,-43.45703125,NaN
1731725443432.3438,-32.2265625,-161.1328125,-189.453125,-107.421875,NaN
1731725443436.25,21.97265625,228.02734375,-170.8984375,-84.9609375,NaN
1731725443440.1562,-12.6953125,200.68359375,-181.15234375,-11.71875,NaN
1731725443444.0625,-95.703125,-95.703125,-194.82421875,-29.78515625,NaN
1731725443447.9688,-53.7109375,-141.11328125,-189.453125,-107.91015625,NaN
1731725443451.875,19.53125,-81.0546875,-183.10546875,-88.8671875,NaN
1731725443455.7812,-13.18359375,-256.34765625,-202.1484375,-31.73828125,NaN
1731725443459.6875,-126.953125,-677.734375,-228.02734375,-49.31640625,NaN
1731725443463.5938,-113.76953125,-327.63671875,-193.84765625,-113.28125,NaN
1731725443467.5,-11.23046875,20.5078125,-180.17578125,-111.328125,NaN
1731725443471.4062,-13.671875,-493.65234375,-224.12109375,-55.6640625,NaN
1731725443475.3125,-128.41796875,-686.5234375,-215.8203125,-44.921875,NaN
1731725443479.2188,-144.53125,-52.24609375,-177.734375,-101.5625,NaN
1731725443483.125,-26.3671875,-71.2890625,-195.3125,-113.76953125,NaN
1731725443487.0312,36.1328125,-291.50390625,-184.5703125,-81.54296875,NaN
1731725443490.9375,-51.26953125,-236.81640625,-174.31640625,-42.48046875,NaN
1731725443494.8438,-154.78515625,-81.54296875,-168.45703125,-77.63671875,NaN
1731725443498.75,-70.80078125,-204.1015625,-187.5,-120.60546875,NaN
1731725443502.6562,8.7890625,-673.33984375,-195.80078125,-80.56640625,NaN
1731725443506.5625,-46.38671875,-794.921875,-169.921875,-35.64453125,NaN
1731725443510.4688,-114.2578125,-652.83203125,-151.85546875,-64.94140625,NaN
1731725443514.375,-88.37890625,-787.109375,-153.80859375,-106.93359375,NaN
1731725443518.2812,0.48828125,-1000,-189.453125,-83.984375,NaN
1731725443522.1875,-32.71484375,-845.21484375,-135.7421875,-50.29296875,NaN
1731725443526.0938,-147.4609375,-400.87890625,-80.078125,-51.26953125,NaN
1731725443530,-67.3828125,-655.76171875,-132.8125,-97.16796875,NaN
1731725443533.9062,68.359375,-940.91796875,-145.5078125,-111.81640625,NaN
1731725443537.8125,-12.20703125,-582.51953125,-108.88671875,-66.40625,NaN
1731725443541.7188,-126.953125,-378.90625,-99.609375,-39.0625,NaN
1731725443545.625,-128.41796875,-674.31640625,-136.23046875,-58.10546875,NaN
1731725443549.5312,-24.4140625,-1000,-163.0859375,-89.35546875,NaN
1731725443553.4375,7.32421875,-915.52734375,-133.30078125,-81.0546875,NaN
1731725443557.3438,-94.7265625,-656.25,-118.1640625,-48.828125,NaN
1731725443561.25,-104.4921875,-832.03125,-170.8984375,-35.64453125,NaN
1731725443565.1562,-23.4375,-1000,-196.77734375,-72.265625,NaN
1731725443569.0625,47.8515625,-775.87890625,-127.9296875,-86.9140625,NaN
1731725443572.9688,-20.99609375,-458.0078125,-106.4453125,-33.203125,NaN
1731725443576.875,-140.625,-684.5703125,-124.51171875,-37.109375,NaN
1731725443580.7812,-86.9140625,-743.1640625,-125.48828125,-87.40234375,NaN
1731725443584.6875,3.41796875,-531.25,-122.55859375,-77.63671875,NaN
1731725443588.5938,-12.6953125,-554.6875,-124.0234375,-30.2734375,NaN
1731725443592.5,-92.28515625,-741.69921875,-136.23046875,-35.64453125,NaN
1731725443596.4062,-59.5703125,-1000,-152.83203125,-64.94140625,NaN
1731725443600.3125,2.9296875,-887.20703125,-145.01953125,-92.7734375,NaN
1731725443604.2188,5.859375,-600.5859375,-145.99609375,-58.10546875,NaN
1731725443608.125,-58.59375,-860.3515625,-179.19921875,6.34765625,NaN
1731725443612.0312,-83.984375,-897.4609375,-157.2265625,-37.109375,NaN
1731725443615.9375,-8.30078125,-533.69140625,-140.625,-78.125,NaN
1731725443619.8438,35.64453125,-656.73828125,-176.26953125,-37.59765625,NaN
1731725443623.75,-32.2265625,-827.1484375,-180.6640625,-34.1796875,NaN
1731725443627.6562,-99.609375,-663.0859375,-165.52734375,-66.89453125,NaN
1731725443631.5625,-19.53125,-575.68359375,-167.96875,-65.91796875,NaN
1731725443635.4688,60.546875,-677.24609375,-181.15234375,-50.78125,NaN
1731725443639.375,15.625,-828.61328125,-191.40625,-31.25,NaN
1731725443643.2812,-68.84765625,-850.09765625,-182.12890625,-24.4140625,NaN
1731725443647.1875,-55.6640625,-770.01953125,-169.43359375,-51.26953125,NaN
1731725443651.0938,23.92578125,-833.0078125,-198.2421875,-47.8515625,NaN
1731725443655,-48.33984375,-853.02734375,-180.17578125,-34.1796875,NaN
1731725443658.9062,-137.20703125,-541.50390625,-116.69921875,-40.0390625,NaN
1731725443662.8125,-71.77734375,-475.09765625,-133.30078125,-52.24609375,NaN
1731725443666.7188,43.45703125,-769.04296875,-146.97265625,-49.8046875,NaN
1731725443670.625,27.34375,-751.953125,-111.328125,-24.90234375,NaN
1731725443674.5312,-72.75390625,-508.7890625,-99.12109375,1.953125,NaN
1731725443678.4375,-92.28515625,-861.81640625,-123.53515625,-25.87890625,NaN
1731725443682.3438,-34.1796875,-1000,-127.44140625,-90.33203125,NaN
1731725443686.25,32.71484375,-868.1640625,-117.1875,-71.2890625,NaN
1731725443690.1562,-27.34375,-899.4140625,-109.375,4.8828125,NaN
1731725443694.0625,-104.00390625,-936.5234375,-113.76953125,-29.78515625,NaN
1731725443697.9688,-31.73828125,-958.984375,-152.34375,-80.56640625,NaN
1731725443701.875,36.1328125,-768.06640625,-110.3515625,-59.08203125,NaN
1731725443705.7812,-19.53125,-257.32421875,-70.3125,-48.828125,NaN
1731725443709.6875,-91.796875,-386.23046875,-113.76953125,-48.33984375,NaN
1731725443713.5938,-74.70703125,-780.2734375,-125.48828125,-55.6640625,NaN
1731725443717.5,4.8828125,-587.40234375,-110.83984375,-98.6328125,NaN
1731725443721.4062,-63.4765625,-303.22265625,-104.00390625,-78.61328125,NaN
1731725443725.3125,-151.3671875,-493.1640625,-126.953125,-38.57421875,NaN
1731725443729.2188,-97.65625,-830.078125,-150.87890625,-68.84765625,NaN
1731725443733.125,-14.16015625,-630.859375,-145.5078125,-92.28515625,NaN
1731725443737.0312,-22.4609375,-643.5546875,-154.296875,-93.26171875,NaN
1731725443740.9375,-97.16796875,-854.00390625,-193.84765625,-62.98828125,NaN
1731725443744.8438,-110.83984375,-1000,-225.5859375,-54.19921875,NaN
1731725443748.75,-58.10546875,-785.64453125,-157.71484375,-115.234375,NaN
1731725443752.6562,5.37109375,-245.1171875,-132.8125,-117.1875,NaN
1731725443756.5625,-42.48046875,-391.11328125,-158.203125,-53.22265625,NaN
1731725443760.4688,-164.0625,-582.51953125,-159.66796875,-41.50390625,NaN
1731725443764.375,-107.91015625,-406.73828125,-151.85546875,-112.79296875,NaN
1731725443768.2812,18.06640625,-421.38671875,-142.578125,-115.72265625,NaN
1731725443772.1875,-30.76171875,-660.64453125,-131.8359375,-49.8046875,NaN
1731725443776.0938,-125.48828125,-709.9609375,-130.37109375,-44.921875,NaN
1731725443780,-119.140625,-447.265625,-133.30078125,-109.375,NaN
1731725443783.9062,-20.99609375,-492.1875,-136.23046875,-142.578125,NaN
1731725443787.8125,0.9765625,-844.23828125,-154.78515625,-73.2421875,NaN
1731725443791.7188,-141.11328125,-803.7109375,-137.6953125,-47.36328125,NaN
1731725443795.625,-147.4609375,-378.41796875,-116.2109375,-95.703125,NaN
1731725443799.5312,-33.203125,-301.26953125,-146.484375,-124.51171875,NaN
1731725443803.4375,-59.5703125,-523.92578125,-155.2734375,-112.3046875,NaN
1731725443807.3438,-132.32421875,-281.25,-122.55859375,-70.80078125,NaN
1731725443811.25,-135.7421875,56.640625,-126.46484375,-124.51171875,NaN
1731725443815.1562,-82.51953125,-190.91796875,-161.1328125,-166.9921875,NaN
1731725443819.0625,-37.109375,-500.48828125,-162.59765625,-129.39453125,NaN
1731725443822.9688,-97.16796875,-129.39453125,-125,-93.26171875,NaN
1731725443826.875,-155.2734375,18.5546875,-128.90625,-86.9140625,NaN
1731725443830.7812,-49.31640625,-666.50390625,-196.77734375,-102.5390625,NaN
1731725443834.6875,0,-800.29296875,-183.10546875,-104.4921875,NaN
1731725443838.5938,-105.46875,-272.4609375,-108.88671875,-80.078125,NaN
1731725443842.5,-156.25,-42.96875,-93.75,-57.6171875,NaN
1731725443846.4062,-112.3046875,-485.83984375,-124.51171875,-68.359375,NaN
1731725443850.3125,-6.34765625,-956.0546875,-130.37109375,-83.49609375,NaN
1731725443854.2188,-20.5078125,-426.26953125,-84.9609375,-75.1953125,NaN
1731725443858.125,-109.86328125,91.30859375,-96.6796875,-68.359375,NaN
1731725443862.0312,-97.16796875,-493.1640625,-155.76171875,-63.96484375,NaN
1731725443865.9375,-14.16015625,-722.16796875,-137.6953125,-77.1484375,NaN
1731725443869.8438,34.1796875,-201.171875,-118.1640625,-90.8203125,NaN
1731725443873.75,-40.0390625,-164.55078125,-139.6484375,-41.015625,NaN
1731725443877.6562,-110.3515625,-669.43359375,-178.22265625,-39.55078125,NaN
1731725443881.5625,-27.83203125,-866.2109375,-187.5,-79.1015625,NaN
1731725443885.4688,-0.9765625,-400.390625,-151.85546875,-90.8203125,NaN
1731725443889.375,-63.4765625,-239.74609375,-130.859375,-47.8515625,NaN
1731725443893.2812,-102.5390625,-629.39453125,-139.6484375,-15.13671875,NaN
1731725443897.1875,-45.8984375,-737.3046875,-141.6015625,-93.26171875,NaN
1731725443901.0938,28.80859375,-380.859375,-139.6484375,-125.48828125,NaN
1731725443905,-19.04296875,-497.0703125,-148.92578125,-36.62109375,NaN
1731725443908.9062,-125.48828125,-727.5390625,-138.18359375,-21.97265625,NaN
1731725443912.8125,-105.95703125,-489.74609375,-121.09375,-71.2890625,NaN
1731725443916.7188,-0.48828125,-259.765625,-141.11328125,-102.05078125,NaN
1731725443920.625,9.765625,-522.4609375,-152.83203125,-60.05859375,NaN
1731725443924.5312,-95.703125,-833.49609375,-121.58203125,-13.671875,NaN
1731725443928.4375,-104.4921875,-919.921875,-95.703125,-62.01171875,NaN
1731725443932.3438,-34.1796875,-736.81640625,-76.171875,-104.00390625,NaN
1731725443936.25,-21.484375,-687.01171875,-121.09375,-54.6875,NaN
1731725443940.1562,-72.265625,-875.48828125,-147.4609375,-30.2734375,NaN
1731725443944.0625,-128.41796875,-472.16796875,-87.890625,-77.1484375,NaN
1731725443947.9688,-94.23828125,-365.72265625,-121.09375,-107.421875,NaN
1731725443951.875,-14.6484375,-690.4296875,-153.80859375,-123.53515625,NaN
1731725443955.7812,-38.57421875,-580.078125,-147.4609375,-58.59375,NaN
1731725443959.6875,-132.8125,-360.3515625,-156.25,-41.50390625,NaN
1731725443963.5938,-97.16796875,-753.90625,-187.98828125,-113.28125,NaN
1731725443967.5,-13.18359375,-1000,-221.6796875,-112.79296875,NaN
1731725443971.4062,-42.96875,-1000,-196.77734375,-78.125,NaN
1731725443975.3125,-116.69921875,-701.171875,-160.15625,-36.1328125,NaN
1731725443979.2188,-141.11328125,-391.11328125,-172.8515625,-52.734375,NaN
1731725443983.125,-58.59375,-805.17578125,-238.28125,-126.953125,NaN
1731725443987.0312,-72.75390625,-794.43359375,-211.42578125,-158.203125,NaN
1731725443990.9375,-180.6640625,-191.89453125,-147.4609375,-126.46484375,NaN
1731725443994.8438,-180.6640625,-433.59375,-173.828125,-113.76953125,NaN
1731725443998.75,-104.98046875,-803.22265625,-173.828125,-144.53125,NaN
1731725444002.6562,-55.6640625,-540.52734375,-146.97265625,-162.109375,NaN
1731725444006.5625,-124.0234375,-305.6640625,-134.27734375,-119.62890625,NaN
1731725444010.4688,-204.1015625,-453.125,-141.6015625,-125,NaN
1731725444014.375,-144.53125,-751.46484375,-141.11328125,-163.0859375,NaN
1731725444018.2812,-47.8515625,-710.9375,-79.1015625,-182.6171875,NaN
1731725444022.1875,-107.91015625,-556.640625,-18.06640625,-125,NaN
1731725444026.0938,-237.3046875,-815.4296875,-35.15625,-86.9140625,NaN
1731725444030,-196.77734375,-853.02734375,-11.23046875,-157.2265625,NaN
1731725444033.9062,-96.19140625,-405.2734375,53.22265625,-169.921875,NaN
1731725444037.8125,-78.61328125,-89.35546875,55.17578125,-126.46484375,NaN
1731725444041.7188,-170.8984375,-518.5546875,12.6953125,-93.26171875,NaN
1731725444045.625,-189.453125,-805.6640625,36.62109375,-130.859375,NaN
1731725444049.5312,-71.77734375,-337.890625,98.14453125,-177.734375,NaN
1731725444053.4375,-60.546875,-154.296875,123.046875,-130.859375,NaN
1731725444057.3438,-140.625,-244.62890625,169.43359375,-93.26171875,NaN
1731725444061.25,-146.97265625,-331.0546875,201.66015625,-107.421875,NaN
1731725444065.1562,-41.50390625,-636.23046875,208.984375,-111.81640625,NaN
1731725444069.0625,-15.13671875,-854.4921875,266.11328125,-118.65234375,NaN
1731725444072.9688,-102.05078125,-822.265625,310.05859375,-81.0546875,NaN
1731725444076.875,-179.19921875,-815.4296875,320.80078125,-74.70703125,NaN
1731725444080.7812,-153.3203125,-487.3046875,362.79296875,-152.34375,NaN
1731725444084.6875,-58.59375,-402.34375,366.2109375,-146.484375,NaN
1731725444088.5938,-85.9375,-649.90234375,356.4453125,-110.3515625,NaN
1731725444092.5,-157.71484375,-474.609375,354.4921875,-58.10546875,NaN
1731725444096.4062,-162.59765625,-261.23046875,325.1953125,-104.98046875,NaN
1731725444100.3125,-117.1875,-507.8125,305.17578125,-196.77734375,NaN
1731725444104.2188,-97.16796875,-731.4453125,351.5625,-156.25,NaN
1731725444108.125,-173.33984375,-432.6171875,418.45703125,-118.65234375,NaN
1731725444112.0312,-166.50390625,-621.58203125,421.875,-121.09375,NaN
1731725444115.9375,-62.01171875,-1000,384.765625,-151.85546875,NaN
1731725444119.8438,-70.3125,-875.48828125,400.390625,-105.95703125,NaN
1731725444123.75,-175.78125,-366.2109375,444.3359375,-76.66015625,NaN
1731725444127.6562,-208.984375,-247.55859375,392.08984375,-136.71875,NaN
1731725444131.5625,-128.41796875,-742.1875,346.19140625,-164.55078125,NaN
1731725444135.4688,-66.40625,-905.2734375,329.1015625,-129.39453125,NaN
1731725444139.375,-91.796875,-573.73046875,316.40625,-100.5859375,NaN
1731725444143.2812,-161.1328125,-342.28515625,286.1328125,-87.890625,NaN
1731725444147.1875,-136.71875,-739.74609375,217.28515625,-132.8125,NaN
1731725444151.0938,-79.58984375,-749.51171875,210.44921875,-152.83203125,NaN
1731725444155,-127.9296875,-157.2265625,211.42578125,-106.93359375,NaN
1731725444158.9062,-183.59375,-275.390625,171.38671875,-89.35546875,NaN
1731725444162.8125,-127.44140625,-845.703125,111.81640625,-94.23828125,NaN
1731725444166.7188,-23.92578125,-731.4453125,100.5859375,-121.09375,NaN
1731725444170.625,-39.55078125,-177.734375,100.5859375,-104.98046875,NaN
1731725444174.5312,-150.87890625,-233.88671875,40.0390625,-87.40234375,NaN
1731725444178.4375,-205.078125,-583.0078125,-11.23046875,-111.328125,NaN
1731725444182.3438,-123.53515625,-667.48046875,-38.57421875,-164.0625,NaN
1731725444186.25,-53.7109375,-397.4609375,-50.78125,-150.87890625,NaN
1731725444190.1562,-141.11328125,-424.31640625,-79.58984375,-80.078125,NaN
1731725444194.0625,-164.0625,-740.234375,-100.5859375,-90.8203125,NaN
1731725444197.9688,-67.87109375,-561.03515625,-122.0703125,-150.390625,NaN
1731725444201.875,-59.08203125,-422.8515625,-144.53125,-123.046875,NaN
1731725444205.7812,-123.046875,-677.734375,-185.05859375,-84.47265625,NaN
1731725444209.6875,-200.1953125,-1000,-259.27734375,-91.796875,NaN
1731725444213.5938,-194.82421875,-740.234375,-218.75,-162.109375,NaN
1731725444217.5,-93.26171875,-491.69921875,-212.890625,-173.33984375,NaN
1731725444221.4062,-78.61328125,-874.0234375,-244.140625,-107.91015625,NaN
1731725444225.3125,-168.45703125,-890.625,-226.07421875,-92.7734375,NaN
1731725444229.2188,-176.7578125,-713.8671875,-220.21484375,-132.8125,NaN
1731725444233.125,-94.7265625,-678.22265625,-216.796875,-151.85546875,NaN
1731725444237.0312,-66.40625,-808.10546875,-207.03125,-103.515625,NaN
1731725444240.9375,-127.44140625,-781.73828125,-189.453125,-91.796875,NaN
1731725444244.8438,-149.90234375,-635.25390625,-196.77734375,-146.97265625,NaN
1731725444248.75,-100.09765625,-798.828125,-217.7734375,-175.78125,NaN
1731725444252.6562,-51.26953125,-937.98828125,-217.28515625,-109.86328125,NaN
1731725444256.5625,-115.72265625,-1000,-219.23828125,-53.7109375,NaN
1731725444260.4688,-192.87109375,-892.578125,-225.09765625,-82.51953125,NaN
1731725444264.375,-129.39453125,-816.89453125,-246.58203125,-126.46484375,NaN
1731725444268.2812,-34.1796875,-1000,-261.23046875,-132.8125,NaN
1731725444272.1875,-62.5,-713.37890625,-198.73046875,-77.63671875,NaN
1731725444276.0938,-140.13671875,-437.98828125,-176.26953125,-72.75390625,NaN
1731725444280,-124.51171875,-732.421875,-215.33203125,-107.91015625,NaN
1731725444283.9062,-38.57421875,-957.51953125,-235.3515625,-113.76953125,NaN
1731725444287.8125,-34.66796875,-739.2578125,-201.171875,-71.77734375,NaN
1731725444291.7188,-109.86328125,-467.28515625,-181.640625,-43.45703125,NaN
1731725444295.625,-134.27734375,-653.3203125,-217.7734375,-77.1484375,NaN
1731725444299.5312,-94.23828125,-1000,-249.0234375,-133.30078125,NaN
1731725444303.4375,-83.0078125,-821.77734375,-208.984375,-140.13671875,NaN
1731725444307.3438,-126.953125,-641.6015625,-188.96484375,-89.35546875,NaN
1731725444311.25,-127.44140625,-950.1953125,-226.07421875,-80.078125,NaN
1731725444315.1562,-51.7578125,-1000,-215.33203125,-116.2109375,NaN
1731725444319.0625,-44.921875,-770.01953125,-129.8828125,-136.23046875,NaN
1731725444322.9688,-134.765625,-457.03125,-108.3984375,-93.26171875,NaN
1731725444326.875,-182.6171875,-701.66015625,-117.1875,-71.77734375,NaN
1731725444330.7812,-117.1875,-771.97265625,-71.77734375,-123.046875,NaN
1731725444334.6875,-55.6640625,-451.171875,-37.109375,-149.4140625,NaN
1731725444338.5938,-80.56640625,-448.73046875,-43.9453125,-93.26171875,NaN
1731725444342.5,-165.0390625,-718.26171875,-41.50390625,-78.125,NaN
1731725444346.4062,-173.828125,-1000,-46.38671875,-126.46484375,NaN
1731725444350.3125,-73.73046875,-996.09375,-35.64453125,-152.83203125,NaN
1731725444354.2188,-63.96484375,-733.3984375,-17.08984375,-92.7734375,NaN
1731725444358.125,-159.66796875,-818.84765625,-37.109375,-50.78125,NaN
1731725444362.0312,-160.15625,-665.52734375,-47.36328125,-93.26171875,NaN
1731725444365.9375,-84.9609375,-303.22265625,-51.7578125,-134.27734375,NaN
1731725444369.8438,-41.9921875,-380.37109375,-79.1015625,-135.25390625,NaN
1731725444373.75,-97.16796875,-451.66015625,-99.12109375,-81.54296875,NaN
1731725444377.6562,-148.4375,-160.64453125,-91.30859375,-98.14453125,NaN
1731725444381.5625,-63.4765625,-93.75,-90.8203125,-121.09375,NaN
1731725444385.4688,24.90234375,-428.7109375,-73.2421875,-96.6796875,NaN
1731725444389.375,-23.92578125,-521.484375,-76.66015625,-40.0390625,NaN
1731725444393.2812,-120.1171875,-540.52734375,-83.984375,-6.34765625,NaN
1731725444397.1875,-82.03125,-436.03515625,-64.94140625,-90.8203125,NaN
1731725444401.0938,-5.37109375,-549.31640625,-96.19140625,-112.79296875,NaN
1731725444405,-70.80078125,-777.83203125,-66.89453125,-63.4765625,NaN
1731725444408.9062,-186.5234375,-232.421875,24.4140625,-63.96484375,NaN
1731725444412.8125,-158.69140625,-154.78515625,4.8828125,-63.4765625,NaN
1731725444416.7188,-51.26953125,-542.96875,7.8125,-98.6328125,NaN
1731725444420.625,-4.8828125,-677.24609375,24.4140625,-109.86328125,NaN
1731725444424.5312,-72.75390625,-471.19140625,30.2734375,-29.296875,NaN
1731725444428.4375,-143.5546875,-249.0234375,41.9921875,-11.71875,NaN
1731725444432.3438,3.41796875,-610.83984375,33.203125,-73.73046875,NaN
1731725444436.25,62.98828125,-742.1875,77.63671875,-58.10546875,NaN
1731725444440.1562,-92.28515625,-559.5703125,149.90234375,-19.04296875,NaN
1731725444444.0625,-133.30078125,-740.234375,196.77734375,-36.1328125,NaN
1731725444447.9688,-70.3125,-939.94140625,154.296875,-34.1796875,NaN
1731725444451.875,-7.8125,-706.54296875,163.0859375,-58.59375,NaN
1731725444455.7812,-52.734375,-137.6953125,205.078125,-65.4296875,NaN
1731725444459.6875,-113.28125,-250,137.20703125,-10.25390625,NaN
1731725444463.5938,-39.0625,-609.375,61.5234375,-27.83203125,NaN
1731725444467.5,31.25,-517.578125,34.1796875,-87.40234375,NaN
1731725444471.4062,-23.92578125,-264.6484375,75.68359375,-60.546875,NaN
1731725444475.3125,-89.84375,-294.921875,112.79296875,-14.6484375,NaN
1731725444479.2188,-81.0546875,-755.859375,116.69921875,-58.10546875,NaN
1731725444483.125,-3.41796875,-728.515625,168.9453125,-93.75,NaN
1731725444487.0312,-6.8359375,-498.53515625,211.9140625,-85.9375,NaN
1731725444490.9375,-93.75,-686.03515625,174.31640625,-58.10546875,NaN
1731725444494.8438,-118.1640625,-977.05078125,131.34765625,-53.7109375,NaN
1731725444498.75,-68.84765625,-786.1328125,170.41015625,-105.46875,NaN
1731725444502.6562,-25.87890625,-373.046875,188.4765625,-121.58203125,NaN
1731725444506.5625,-99.12109375,-472.65625,184.08203125,-68.359375,NaN
1731725444510.4688,-161.1328125,-628.90625,158.69140625,-68.84765625,NaN
1731725444514.375,-83.49609375,-497.0703125,147.4609375,-114.2578125,NaN
1731725444518.2812,-6.8359375,-559.5703125,167.96875,-87.40234375,NaN
1731725444522.1875,-67.87109375,-772.4609375,195.80078125,-47.8515625,NaN
1731725444526.0938,-144.04296875,-668.45703125,194.3359375,-44.43359375,NaN
1731725444530,-87.40234375,-681.15234375,170.41015625,-69.3359375,NaN
1731725444533.9062,-2.9296875,-971.6796875,167.48046875,-80.078125,NaN
1731725444537.8125,-11.71875,-1000,119.140625,-43.9453125,NaN
1731725444541.7188,-100.5859375,-931.15234375,135.7421875,-28.3203125,NaN
1731725444545.625,-117.67578125,-618.1640625,184.5703125,-62.01171875,NaN
1731725444549.5312,0.9765625,-553.7109375,143.5546875,-61.03515625,NaN
1731725444553.4375,35.64453125,-816.89453125,119.140625,-9.765625,NaN
1731725444557.3438,-55.6640625,-794.43359375,120.60546875,-4.39453125,NaN
1731725444561.25,-56.15234375,-603.02734375,118.65234375,-26.3671875,NaN
1731725444565.1562,-6.34765625,-789.55078125,93.26171875,-64.453125,NaN
1731725444569.0625,15.13671875,-966.796875,72.265625,-46.875,NaN
1731725444572.9688,-23.92578125,-743.1640625,74.21875,10.7421875,NaN
1731725444576.875,-71.2890625,-711.42578125,81.0546875,36.1328125,NaN
1731725444580.7812,-16.6015625,-971.19140625,27.83203125,9.765625,NaN
1731725444584.6875,54.6875,-1000,15.13671875,-21.484375,NaN
1731725444588.5938,7.8125,-490.72265625,90.33203125,-15.625,NaN
1731725444592.5,-81.54296875,-474.609375,41.015625,2.9296875,NaN
1731725444596.4062,-58.10546875,-1000,-65.4296875,-25.87890625,NaN
1731725444600.3125,12.20703125,-878.41796875,-53.22265625,-60.546875,NaN
1731725444604.2188,13.18359375,-453.125,-2.44140625,-33.203125,NaN
1731725444608.125,-72.265625,-395.5078125,-50.78125,0,NaN
1731725444612.0312,-80.56640625,-715.8203125,-82.03125,-23.92578125,NaN
1731725444615.9375,14.6484375,-671.875,-67.87109375,-73.2421875,NaN
1731725444619.8438,16.11328125,-339.84375,-58.59375,-61.5234375,NaN
1731725444623.75,-66.40625,-458.49609375,-81.54296875,2.44140625,NaN
1731725444627.6562,-66.40625,-940.91796875,-149.90234375,-27.34375,NaN
1731725444631.5625,-7.8125,-1000,-135.7421875,-70.3125,NaN
1731725444635.4688,-31.73828125,-631.34765625,-68.84765625,-59.08203125,NaN
1731725444639.375,-91.796875,-449.70703125,-77.63671875,-10.25390625,NaN
1731725444643.2812,-134.27734375,-905.2734375,-114.74609375,15.13671875,NaN
1731725444647.1875,-58.10546875,-879.39453125,-51.7578125,-61.5234375,NaN
1731725444651.0938,48.33984375,-708.0078125,-22.4609375,-70.80078125,NaN
1731725444655,-15.625,-860.83984375,-25.87890625,-13.18359375,NaN
1731725444658.9062,-95.703125,-868.65234375,-4.8828125,-0.9765625,NaN
1731725444662.8125,-83.0078125,-743.1640625,6.34765625,-43.9453125,NaN
1731725444666.7188,4.39453125,-494.140625,18.06640625,-59.08203125,NaN
1731725444670.625,15.13671875,-520.01953125,14.16015625,-20.5078125,NaN
1731725444674.5312,-105.46875,-901.3671875,1.953125,-14.16015625,NaN
1731725444678.4375,-140.625,-830.078125,15.13671875,-57.12890625,NaN
1731725444682.3438,-49.31640625,-447.75390625,24.90234375,-79.1015625,NaN
1731725444686.25,16.6015625,-684.08203125,-27.34375,-49.8046875,NaN
1731725444690.1562,-54.19921875,-977.05078125,-39.55078125,-10.25390625,NaN
1731725444694.0625,-128.90625,-645.01953125,40.52734375,-42.48046875,NaN
1731725444697.9688,-45.41015625,-505.37109375,39.55078125,-69.82421875,NaN
1731725444701.875,46.38671875,-790.0390625,32.71484375,-56.640625,NaN
1731725444705.7812,1.953125,-752.44140625,62.5,-14.6484375,NaN
1731725444709.6875,-39.0625,-726.07421875,66.89453125,19.53125,NaN
1731725444713.5938,-54.6875,-715.8203125,67.3828125,-24.4140625,NaN
1731725444717.5,-18.5546875,-830.078125,37.109375,-44.921875,NaN
1731725444721.4062,21.484375,-1000,53.22265625,20.99609375,NaN
1731725444725.3125,-24.90234375,-843.75,87.890625,66.89453125,NaN
1731725444729.2188,-67.87109375,-640.625,67.3828125,25.87890625,NaN
1731725444733.125,11.23046875,-960.44921875,22.94921875,-14.6484375,NaN
1731725444737.0312,58.10546875,-645.99609375,92.28515625,3.90625,NaN
1731725444740.9375,-22.94921875,-241.69921875,116.2109375,38.57421875,NaN
1731725444744.8438,-63.96484375,-778.3203125,45.41015625,18.06640625,NaN
1731725444748.75,37.59765625,-958.49609375,53.7109375,3.90625,NaN
1731725444752.6562,109.375,-615.234375,97.65625,26.85546875,NaN
1731725444756.5625,29.296875,-461.9140625,103.02734375,67.87109375,NaN
1731725444760.4688,-52.734375,-712.40234375,80.078125,81.54296875,NaN
1731725444764.375,3.41796875,-999.0234375,70.80078125,36.62109375,NaN
1731725444768.2812,55.6640625,-935.546875,83.49609375,21.97265625,NaN
1731725444772.1875,11.71875,-809.08203125,96.19140625,59.08203125,NaN
1731725444776.0938,-16.6015625,-866.2109375,47.36328125,89.35546875,NaN
1731725444780,38.0859375,-1000,-0.9765625,51.26953125,NaN
1731725444783.9062,66.40625,-703.61328125,93.26171875,33.69140625,NaN
1731725444787.8125,4.39453125,-193.84765625,97.65625,64.453125,NaN
1731725444791.7188,-75.68359375,-575.68359375,46.875,64.453125,NaN
1731725444795.625,-38.57421875,-700.68359375,78.125,52.734375,NaN
1731725444799.5312,47.8515625,-432.6171875,81.54296875,20.01953125,NaN
1731725444803.4375,44.921875,-402.83203125,69.82421875,34.66796875,NaN
1731725444807.3438,14.16015625,-514.6484375,69.3359375,73.73046875,NaN
1731725444811.25,-18.06640625,-574.70703125,60.05859375,62.98828125,NaN
1731725444815.1562,30.76171875,-764.6484375,39.0625,59.08203125,NaN
1731725444819.0625,110.3515625,-1000,57.6171875,56.15234375,NaN
1731725444822.9688,38.57421875,-992.1875,27.34375,74.21875,NaN
1731725444826.875,-35.64453125,-910.15625,26.3671875,80.078125,NaN
1731725444830.7812,-5.37109375,-583.49609375,83.0078125,20.5078125,NaN
1731725444834.6875,77.1484375,-484.86328125,54.19921875,36.62109375,NaN
1731725444838.5938,64.453125,-663.57421875,33.69140625,65.4296875,NaN
1731725444842.5,-38.57421875,-682.12890625,27.83203125,50.78125,NaN
1731725444846.4062,-22.4609375,-480.95703125,29.78515625,34.1796875,NaN
1731725444850.3125,98.14453125,-542.96875,8.7890625,41.9921875,NaN
1731725444854.2188,105.95703125,-663.57421875,6.34765625,78.61328125,NaN
1731725444858.125,-29.296875,-639.16015625,-3.90625,94.7265625,NaN
1731725444862.0312,-53.22265625,-932.6171875,-30.2734375,52.24609375,NaN
1731725444865.9375,64.453125,-1000,-57.6171875,20.99609375,NaN
1731725444869.8438,89.35546875,-937.98828125,-52.24609375,31.25,NaN
1731725444873.75,0.9765625,-485.3515625,25.390625,44.43359375,NaN
1731725444877.6562,-36.1328125,-175.29296875,7.32421875,60.05859375,NaN
1731725444881.5625,16.6015625,-669.921875,-56.640625,33.203125,NaN
1731725444885.4688,48.828125,-723.14453125,-50.78125,-5.859375,NaN
1731725444889.375,-26.85546875,-41.9921875,2.9296875,10.25390625,NaN
1731725444893.2812,-81.54296875,16.11328125,-15.13671875,49.8046875,NaN
1731725444897.1875,-37.109375,-508.7890625,-59.5703125,14.16015625,NaN
1731725444901.0938,44.43359375,-494.62890625,-41.015625,-27.34375,NaN
1731725444905,44.43359375,-146.484375,-38.57421875,9.765625,NaN
1731725444908.9062,-22.4609375,-461.9140625,-73.2421875,33.69140625,NaN
1731725444912.8125,-33.69140625,-908.203125,-114.74609375,16.11328125,NaN
1731725444916.7188,15.625,-860.3515625,-98.6328125,-23.92578125,NaN
1731725444920.625,14.16015625,-486.81640625,-55.6640625,-12.6953125,NaN
1731725444924.5312,-33.203125,-438.96484375,-80.078125,36.1328125,NaN
1731725444928.4375,-49.31640625,-750.48828125,-111.328125,23.4375,NaN
1731725444932.3438,23.4375,-661.1328125,-110.83984375,-45.8984375,NaN
1731725444936.25,87.890625,-681.640625,-121.58203125,-8.30078125,NaN
1731725444940.1562,-52.24609375,-961.9140625,-132.32421875,70.80078125,NaN
1731725444944.0625,-129.39453125,-855.46875,-127.9296875,18.06640625,NaN
1731725444947.9688,-63.96484375,-584.47265625,-111.81640625,-47.8515625,NaN
1731725444951.875,20.5078125,-544.921875,-118.1640625,-43.9453125,NaN
1731725444955.7812,8.30078125,-878.90625,-161.1328125,7.32421875,NaN
1731725444959.6875,-81.54296875,-965.8203125,-152.83203125,25.87890625,NaN
1731725444963.5938,-40.0390625,-664.55078125,-105.95703125,-27.83203125,NaN
1731725444967.5,57.12890625,-510.25390625,-117.1875,-20.01953125,NaN
1731725444971.4062,3.90625,-675.78125,-114.2578125,22.94921875,NaN
1731725444975.3125,-89.35546875,-839.35546875,-109.375,-0.48828125,NaN
1731725444979.2188,-72.75390625,-704.1015625,-107.91015625,-63.4765625,NaN
1731725444983.125,7.32421875,-560.546875,-115.72265625,-67.87109375,NaN
1731725444987.0312,31.73828125,-747.0703125,-115.234375,-24.4140625,NaN
1731725444990.9375,-46.875,-612.79296875,-80.078125,-12.20703125,NaN
1731725444994.8438,-80.56640625,-550.29296875,-94.23828125,-9.27734375,NaN
1731725444998.75,-34.66796875,-682.6171875,-93.26171875,-11.23046875,NaN
1731725445002.6562,26.85546875,-856.93359375,-133.7890625,7.8125,NaN
1731725445006.5625,-32.71484375,-907.71484375,-119.140625,9.765625,NaN
1731725445010.4688,-127.44140625,-469.7265625,-48.828125,-30.76171875,NaN
1731725445014.375,-32.71484375,-468.75,-80.56640625,-47.36328125,NaN
1731725445018.2812,65.91796875,-708.49609375,-95.703125,-45.8984375,NaN
1731725445022.1875,-11.23046875,-547.36328125,-70.3125,-18.5546875,NaN
1731725445026.0938,-92.7734375,-473.14453125,-67.3828125,-6.34765625,NaN
1731725445030,-52.734375,-834.9609375,-92.28515625,-35.15625,NaN
1731725445033.9062,0,-858.3984375,-74.70703125,-44.921875,NaN
1731725445037.8125,-27.34375,-588.8671875,-53.7109375,-28.3203125,NaN
1731725445041.7188,-102.05078125,-461.42578125,-44.43359375,-2.9296875,NaN
1731725445045.625,-64.453125,-625.48828125,-78.125,-15.13671875,NaN
1731725445049.5312,28.80859375,-991.2109375,-104.98046875,-52.734375,NaN
1731725445053.4375,23.92578125,-1000,-68.84765625,-28.80859375,NaN
1731725445057.3438,-54.6875,-710.44921875,-38.0859375,33.69140625,NaN
1731725445061.25,-108.3984375,-625.48828125,-87.890625,7.32421875,NaN
1731725445065.1562,-33.203125,-1000,-140.13671875,-55.17578125,NaN
1731725445069.0625,14.6484375,-622.55859375,-48.33984375,-67.87109375,NaN
1731725445072.9688,-46.875,-247.0703125,-56.640625,-24.4140625,NaN
1731725445076.875,-101.5625,-706.54296875,-104.98046875,-1.953125,NaN
1731725445080.7812,-25.87890625,-826.66015625,-93.75,-38.0859375,NaN
1731725445084.6875,50.78125,-438.4765625,-68.359375,-65.91796875,NaN
1731725445088.5938,-5.37109375,-251.46484375,-60.546875,-16.6015625,NaN
1731725445092.5,-116.2109375,-402.83203125,-74.70703125,-4.8828125,NaN
1731725445096.4062,-65.4296875,-787.59765625,-104.00390625,-36.1328125,NaN
1731725445100.3125,48.828125,-680.6640625,-103.02734375,-52.734375,NaN
1731725445104.2188,30.76171875,-345.21484375,-84.9609375,-37.59765625,NaN
1731725445108.125,-16.6015625,-781.73828125,-149.90234375,30.2734375,NaN
1731725445112.0312,-64.94140625,-992.67578125,-150.390625,4.39453125,NaN
1731725445115.9375,-39.0625,-643.06640625,-97.16796875,-71.77734375,NaN
1731725445119.8438,9.27734375,-563.96484375,-134.27734375,-57.6171875,NaN
1731725445123.75,-67.87109375,-838.37890625,-170.8984375,0.48828125,NaN
1731725445127.6562,-77.63671875,-809.5703125,-150.390625,-15.13671875,NaN
1731725445131.5625,-30.76171875,-637.20703125,-162.59765625,-78.61328125,NaN
1731725445135.4688,-30.2734375,-737.3046875,-187.98828125,-79.58984375,NaN
1731725445139.375,-53.22265625,-695.80078125,-192.87109375,-22.94921875,NaN
1731725445143.2812,-104.98046875,-799.31640625,-208.0078125,-16.11328125,NaN
1731725445147.1875,-64.453125,-898.4375,-195.80078125,-47.8515625,NaN
1731725445151.0938,23.4375,-799.31640625,-215.8203125,-50.78125,NaN
1731725445155,-1.953125,-913.57421875,-232.91015625,-4.8828125,NaN
1731725445158.9062,-121.58203125,-538.0859375,-169.921875,-34.1796875,NaN
1731725445162.8125,-109.375,-359.86328125,-193.84765625,-76.66015625,NaN
1731725445166.7188,0.9765625,-805.6640625,-239.74609375,-65.4296875,NaN
1731725445170.625,10.7421875,-672.36328125,-198.73046875,-58.10546875,NaN
1731725445174.5312,-64.453125,-125.48828125,-165.52734375,-33.69140625,NaN
1731725445178.4375,-102.05078125,-191.40625,-205.56640625,-45.41015625,NaN
1731725445182.3438,7.32421875,-734.86328125,-249.51171875,-91.796875,NaN
1731725445186.25,24.4140625,-691.40625,-218.75,-83.984375,NaN
1731725445190.1562,-101.07421875,-532.2265625,-209.47265625,-17.578125,NaN
1731725445194.0625,-136.23046875,-802.734375,-230.46875,-30.2734375,NaN
1731725445197.9688,-50.29296875,-979.00390625,-260.25390625,-80.078125,NaN
1731725445201.875,20.99609375,-783.69140625,-231.4453125,-54.19921875,NaN
1731725445205.7812,-47.8515625,-282.71484375,-187.01171875,-11.23046875,NaN
1731725445209.6875,-121.58203125,-367.1875,-224.12109375,-16.6015625,NaN
