time,TP9,AF7,AF8,TP10,AUX
1731699273446,-310.05859375,764.16015625,761.71875,-172.36328125,985.3515625
1731699273449.9062,38.57421875,264.6484375,212.40234375,-20.01953125,-720.21484375
1731699273453.8125,272.94921875,-1000,-1000,47.8515625,-1000
1731699273457.7188,-33.69140625,-921.875,-916.015625,-77.1484375,636.71875
1731699273461.625,-308.59375,658.203125,657.71484375,-162.59765625,999.51171875
1731699273465.5312,-79.1015625,908.69140625,896.484375,-39.55078125,-472.65625
1731699273469.4375,238.76953125,-801.7578125,-814.94140625,84.47265625,-1000
1731699273473.3438,72.265625,-1000,-1000,-34.1796875,18.5546875
1731699273477.25,-291.9921875,512.6953125,517.578125,-166.015625,999.51171875
1731699273481.1562,-206.54296875,999.51171875,999.51171875,-88.37890625,92.7734375
1731699273485.0625,183.10546875,-608.3984375,-617.1875,54.6875,-1000
1731699273488.9688,150.87890625,-1000,-1000,7.8125,-550.78125
1731699273492.875,-242.1875,34.1796875,45.8984375,-136.23046875,959.9609375
1731699273496.7812,-307.6171875,999.51171875,999.51171875,-128.90625,831.54296875
1731699273500.6875,48.33984375,241.2109375,222.65625,34.1796875,-835.9375
1731699273504.5938,202.1484375,-1000,-1000,48.33984375,-993.1640625
1731699273508.5,-128.41796875,-596.19140625,-592.28515625,-83.0078125,704.1015625
1731699273512.4062,-328.61328125,951.171875,952.1484375,-116.69921875,999.51171875
1731699273516.3125,-63.96484375,926.7578125,921.875,24.4140625,-658.203125
1731699273520.2188,205.078125,-752.44140625,-758.7890625,80.078125,-1000
1731699273524.125,-27.34375,-966.30859375,-962.40234375,-38.57421875,540.52734375
1731699273528.0312,-286.1328125,736.81640625,745.60546875,-105.46875,999.51171875
1731699273531.9375,-106.93359375,999.51171875,999.51171875,-22.4609375,-332.03125
1731699273535.8438,147.94921875,-601.07421875,-621.58203125,70.3125,-1000
1731699273539.75,51.7578125,-996.58203125,-997.55859375,15.13671875,-75.1953125
1731699273543.6562,-145.5078125,558.59375,560.546875,-50.78125,999.51171875
1731699273547.5625,-119.140625,999.51171875,999.51171875,-37.109375,449.70703125
1731699273551.4688,23.92578125,530.76171875,466.30859375,-4.8828125,-988.28125
1731699273555.375,65.91796875,-928.7109375,-959.9609375,5.859375,-842.28515625
1731699273559.2812,-27.83203125,-205.078125,-196.2890625,-14.16015625,756.8359375
1731699273563.1875,-105.95703125,999.51171875,999.51171875,-50.78125,999.0234375
1731699273567.0938,-46.38671875,826.66015625,812.5,-20.5078125,-677.24609375
1731699273571,82.51953125,-718.26171875,-737.3046875,1.46484375,-996.58203125
1731699273574.9062,26.3671875,-1000,-1000,-5.859375,667.96875
1731699273578.8125,-60.546875,708.0078125,715.33203125,-39.55078125,999.51171875
1731699273582.7188,-29.296875,956.0546875,945.3125,-45.8984375,-320.80078125
1731699273586.625,51.7578125,-643.06640625,-646.484375,-13.671875,-1000
1731699273590.5312,35.15625,-1000,-1000,-12.6953125,-204.1015625
1731699273594.4375,-41.50390625,75.68359375,18.06640625,-43.45703125,999.51171875
1731699273598.3438,-58.59375,904.78515625,883.7890625,-51.26953125,408.69140625
1731699273602.25,18.06640625,-538.0859375,-532.2265625,-27.34375,-991.2109375
1731699273606.1562,42.96875,-1000,-1000,-24.4140625,-562.5
1731699273610.0625,-40.0390625,-739.74609375,-737.3046875,-57.12890625,907.71484375
1731699273613.9688,-87.890625,661.1328125,655.76171875,-83.984375,764.6484375
1731699273617.875,-22.94921875,-117.1875,-124.0234375,-57.12890625,-808.10546875
1731699273621.7812,35.64453125,-1000,-1000,-42.96875,-976.5625
1731699273625.6875,-26.3671875,-882.32421875,-887.20703125,-47.8515625,537.59765625
1731699273629.5938,-126.46484375,638.18359375,635.7421875,-72.75390625,999.51171875
1731699273633.5,-116.69921875,856.4453125,836.42578125,-49.8046875,-119.62890625
1731699273637.4062,19.53125,-882.32421875,-894.04296875,-37.59765625,-1000
1731699273641.3125,3.41796875,-1000,-1000,-41.9921875,186.03515625
1731699273645.2188,-99.12109375,601.07421875,584.47265625,-55.6640625,999.51171875
1731699273649.125,-99.12109375,999.51171875,999.51171875,-56.15234375,-301.26953125
1731699273653.0312,-13.18359375,-680.6640625,-679.6875,-29.78515625,-1000
1731699273656.9375,-4.8828125,-1000,-1000,-20.01953125,63.4765625
1731699273660.8438,-83.984375,425.29296875,423.828125,-45.41015625,999.51171875
1731699273664.75,-113.28125,999.51171875,999.51171875,-61.03515625,495.60546875
1731699273668.6562,-15.625,64.94140625,-16.6015625,-40.0390625,-940.4296875
1731699273672.5625,29.296875,-1000,-1000,-29.78515625,-740.234375
1731699273676.4688,-61.5234375,104.00390625,99.12109375,-41.9921875,850.09765625
1731699273680.375,-135.25390625,999.51171875,999.51171875,-54.19921875,904.296875
1731699273684.2812,-60.05859375,792.96875,783.203125,-31.73828125,-742.1875
1731699273688.1875,32.2265625,-780.2734375,-793.45703125,-17.578125,-1000
1731699273692.0938,-35.15625,-678.22265625,-669.43359375,-22.4609375,601.07421875
1731699273696,-108.3984375,980.95703125,983.3984375,-61.03515625,999.51171875
1731699273699.9062,-61.5234375,951.66015625,946.2890625,-48.33984375,-438.4765625
1731699273703.8125,28.80859375,-682.12890625,-687.5,-14.16015625,-1000
1731699273707.7188,-6.8359375,-1000,-1000,-11.23046875,254.39453125
1731699273711.625,-82.03125,665.52734375,671.38671875,-50.29296875,999.51171875
1731699273715.5312,-81.54296875,999.51171875,999.51171875,-58.59375,8.30078125
1731699273719.4375,-0.48828125,-510.25390625,-527.83203125,-23.4375,-1000
1731699273723.3438,19.53125,-1000,-1000,-22.94921875,-288.57421875
1731699273727.25,-60.546875,311.5234375,281.73828125,-48.33984375,971.6796875
1731699273731.1562,-88.37890625,999.51171875,999.51171875,-65.91796875,506.34765625
1731699273735.0625,10.7421875,-129.39453125,-167.96875,-32.2265625,-956.54296875
1731699273738.9688,63.96484375,-1000,-1000,-22.94921875,-842.28515625
1731699273742.875,-31.73828125,-609.375,-605.95703125,-38.57421875,760.7421875
1731699273746.7812,-102.05078125,932.6171875,924.31640625,-74.21875,983.3984375
1731699273750.6875,-29.296875,613.28125,587.890625,-71.77734375,-621.09375
1731699273754.5938,48.828125,-1000,-1000,-28.80859375,-1000
1731699273758.5,3.90625,-952.63671875,-948.73046875,-32.2265625,449.70703125
1731699273762.4062,-74.70703125,698.73046875,697.75390625,-84.47265625,999.51171875
1731699273766.3125,-64.94140625,984.86328125,979.98046875,-60.05859375,-353.02734375
1731699273770.2188,39.0625,-722.65625,-725.5859375,-20.99609375,-1000
1731699273774.125,23.4375,-1000,-1000,-16.11328125,69.3359375
1731699273778.0312,-81.54296875,583.49609375,575.68359375,-39.55078125,999.51171875
1731699273781.9375,-100.5859375,999.51171875,999.51171875,-56.15234375,288.0859375
1731699273785.8438,4.8828125,-545.8984375,-561.5234375,-28.80859375,-1000
1731699273789.75,34.66796875,-1000,-1000,-9.27734375,-461.42578125
1731699273793.6562,-71.77734375,4.8828125,-29.78515625,-33.203125,951.171875
1731699273797.5625,-116.2109375,999.51171875,999.51171875,-54.6875,811.03515625
1731699273801.4688,-11.71875,-67.87109375,-98.6328125,-35.64453125,-761.71875
1731699273805.375,37.109375,-1000,-1000,-23.92578125,-976.5625
1731699273809.2812,-59.08203125,-722.65625,-727.05078125,-31.25,708.984375
1731699273813.1875,-128.90625,855.46875,842.28515625,-63.96484375,898.4375
1731699273817.0938,-43.45703125,697.75390625,673.33984375,-52.734375,-764.6484375
1731699273821,62.98828125,-970.21484375,-984.375,-28.80859375,-1000
1731699273824.9062,-12.20703125,-988.28125,-986.328125,-33.203125,464.84375
1731699273828.8125,-109.375,675.78125,672.36328125,-91.796875,999.51171875
1731699273832.7188,-75.1953125,981.93359375,975.5859375,-89.35546875,-424.8046875
1731699273836.625,30.76171875,-710.44921875,-721.19140625,-47.36328125,-1000
1731699273840.5312,-3.41796875,-1000,-1000,-39.55078125,37.109375
1731699273844.4375,-139.6484375,516.11328125,524.4140625,-70.3125,999.51171875
1731699273848.3438,-136.23046875,999.51171875,999.51171875,-64.94140625,44.921875
1731699273852.25,81.54296875,-590.8203125,-598.6328125,3.41796875,-1000
1731699273856.1562,103.515625,-1000,-1000,-21.484375,-264.16015625
1731699273860.0625,-131.34765625,138.671875,125.9765625,-99.12109375,999.51171875
1731699273863.9688,-154.78515625,999.51171875,999.51171875,-94.7265625,617.67578125
1731699273867.875,84.47265625,-257.8125,-286.1328125,-7.8125,-939.94140625
1731699273871.7812,152.83203125,-1000,-1000,1.953125,-833.0078125
1731699273875.6875,-101.5625,-571.77734375,-567.87109375,-61.03515625,833.984375
1731699273879.5938,-219.7265625,949.21875,942.87109375,-91.30859375,915.0390625
1731699273883.5,15.625,524.90234375,479.98046875,-5.37109375,-764.6484375
1731699273887.4062,177.24609375,-1000,-1000,31.73828125,-1000
1731699273891.3125,-41.015625,-954.58984375,-944.82421875,-53.7109375,604.00390625
1731699273895.2188,-226.07421875,682.12890625,686.5234375,-108.88671875,999.51171875
1731699273899.125,-49.31640625,959.47265625,945.3125,-24.90234375,-523.4375
1731699273903.0312,186.5234375,-745.60546875,-760.7421875,55.17578125,-1000
1731699273906.9375,47.36328125,-1000,-1000,-17.08984375,222.65625
1731699273910.8438,-199.70703125,556.15234375,554.19921875,-107.421875,999.51171875
1731699273914.75,-107.421875,976.5625,976.07421875,-59.5703125,101.07421875
1731699273918.6562,167.96875,-606.4453125,-605.95703125,44.921875,-1000
1731699273922.5625,122.0703125,-1000,-1000,-2.44140625,-416.50390625
1731699273926.4688,-176.7578125,-156.73828125,-158.69140625,-100.5859375,999.51171875
1731699273930.375,-210.44921875,973.14453125,958.49609375,-76.66015625,757.32421875
1731699273934.2812,79.58984375,-299.8046875,-320.80078125,34.66796875,-881.34765625
1731699273938.1875,188.96484375,-1000,-1000,33.203125,-903.80859375
1731699273942.0938,-87.40234375,-786.62109375,-777.34375,-66.89453125,760.7421875
1731699273946,-237.3046875,745.1171875,747.0703125,-102.5390625,999.51171875
1731699273949.9062,5.37109375,350.5859375,328.125,-2.44140625,-578.125
1731699273953.8125,195.3125,-1000,-1000,27.83203125,-1000
1731699273957.7188,-31.73828125,-945.80078125,-945.3125,-57.6171875,595.21484375
1731699273961.625,-270.01953125,651.85546875,653.3203125,-121.58203125,999.51171875
1731699273965.5312,-97.16796875,889.6484375,871.09375,-39.0625,-483.88671875
1731699273969.4375,180.6640625,-770.5078125,-792.48046875,44.43359375,-1000
1731699273973.3438,54.19921875,-1000,-1000,-24.4140625,271.97265625
1731699273977.25,-234.86328125,304.19921875,316.40625,-105.95703125,999.51171875
1731699273981.1562,-201.171875,971.6796875,972.65625,-58.10546875,369.140625
1731699273985.0625,133.30078125,-557.12890625,-561.03515625,45.8984375,-1000
1731699273988.9688,177.24609375,-1000,-1000,-2.9296875,-633.30078125
1731699273992.875,-163.57421875,-454.1015625,-407.71484375,-100.5859375,953.61328125
1731699273996.7812,-237.3046875,899.4140625,904.296875,-95.21484375,828.61328125
1731699274000.6875,72.265625,-147.4609375,-187.5,16.11328125,-839.84375
1731699274004.5938,189.94140625,-1000,-1000,23.92578125,-960.9375
1731699274008.5,-103.02734375,-831.0546875,-822.75390625,-73.73046875,750
1731699274012.4062,-266.6015625,726.5625,729.4921875,-112.3046875,991.69921875
1731699274016.3125,-17.08984375,701.66015625,652.83203125,-2.9296875,-706.54296875
1731699274020.2188,203.125,-998.046875,-1000,61.5234375,-1000
1731699274024.125,-9.27734375,-987.79296875,-979.00390625,-28.3203125,546.38671875
1731699274028.0312,-272.4609375,658.203125,657.2265625,-104.00390625,999.51171875
1731699274031.9375,-114.74609375,999.51171875,998.046875,-43.9453125,-346.19140625
1731699274035.8438,184.5703125,-676.26953125,-680.17578125,49.31640625,-1000
1731699274039.75,74.70703125,-1000,-1000,-19.53125,268.5546875
1731699274043.6562,-234.375,438.96484375,435.546875,-123.53515625,999.51171875
1731699274047.5625,-200.68359375,999.51171875,999.51171875,-78.61328125,257.8125
1731699274051.4688,112.79296875,-431.15234375,-440.91796875,28.80859375,-1000
1731699274055.375,145.01953125,-1000,-1000,10.7421875,-772.4609375
1731699274059.2812,-174.31640625,-148.92578125,-148.4375,-80.56640625,840.33203125
1731699274063.1875,-277.83203125,999.51171875,999.51171875,-87.40234375,905.2734375
1731699274067.0938,18.06640625,499.0234375,497.0703125,28.3203125,-793.45703125
1731699274071,209.47265625,-1000,-1000,53.22265625,-1000
1731699274074.9062,-81.0546875,-710.44921875,-707.51953125,-47.36328125,669.921875
1731699274078.8125,-277.34375,889.16015625,891.6015625,-92.28515625,999.51171875
1731699274082.7188,-45.41015625,922.36328125,919.43359375,6.8359375,-614.2578125
1731699274086.625,189.453125,-751.953125,-754.39453125,68.359375,-1000
1731699274090.5312,8.7890625,-1000,-1000,-12.6953125,450.68359375
1731699274094.4375,-266.6015625,674.31640625,674.8046875,-97.16796875,999.51171875
1731699274098.3438,-145.99609375,999.51171875,999.51171875,-21.484375,64.453125
1731699274102.25,157.71484375,-662.109375,-665.0390625,73.2421875,-1000
1731699274106.1562,91.30859375,-1000,-1000,4.39453125,-142.08984375
1731699274110.0625,-206.0546875,461.42578125,460.44921875,-82.51953125,999.51171875
1731699274113.9688,-209.9609375,999.51171875,999.51171875,-66.89453125,569.3359375
1731699274117.875,94.23828125,-123.53515625,-150.390625,22.94921875,-950.1953125
1731699274121.7812,148.92578125,-1000,-1000,14.6484375,-827.1484375
1731699274125.6875,-131.8359375,-278.80859375,-264.6484375,-63.96484375,831.0546875
1731699274129.5938,-221.6796875,999.51171875,999.51171875,-79.58984375,928.22265625
1731699274133.5,3.41796875,696.2890625,673.828125,-8.30078125,-745.1171875
1731699274137.4062,127.9296875,-901.85546875,-918.9453125,2.44140625,-1000
1731699274141.3125,-28.3203125,-975.5859375,-963.37890625,-33.69140625,557.6171875
1731699274145.2188,-139.16015625,711.42578125,720.703125,-51.7578125,999.51171875
1731699274149.125,-71.2890625,999.51171875,998.53515625,-30.76171875,-452.63671875
1731699274153.0312,51.26953125,-669.43359375,-670.8984375,-7.8125,-1000
1731699274156.9375,17.578125,-1000,-1000,-15.13671875,24.4140625
1731699274160.8438,-93.26171875,475.09765625,464.35546875,-34.1796875,999.51171875
1731699274164.75,-101.07421875,999.51171875,999.51171875,-47.8515625,290.0390625
1731699274168.6562,-9.27734375,-390.13671875,-401.3671875,-22.94921875,-1000
1731699274172.5625,15.13671875,-1000,-1000,-6.34765625,-421.38671875
1731699274176.4688,-70.80078125,-414.55078125,-436.5234375,-4.39453125,999.51171875
1731699274180.375,-124.0234375,999.51171875,982.91015625,-36.1328125,829.1015625
1731699274184.2812,-34.1796875,320.80078125,287.59765625,-43.9453125,-737.3046875
1731699274188.1875,51.26953125,-1000,-1000,-16.11328125,-1000
1731699274192.0938,-18.5546875,-917.96875,-913.57421875,-23.92578125,546.875
1731699274196,-110.3515625,690.91796875,688.4765625,-56.640625,999.51171875
1731699274199.9062,-95.703125,934.08203125,927.24609375,-41.9921875,-368.1640625
1731699274203.8125,30.2734375,-766.6015625,-771.97265625,-35.64453125,-1000
1731699274207.7188,17.08984375,-1000,-1000,-33.203125,136.23046875
1731699274211.625,-79.58984375,532.71484375,519.53125,-47.36328125,999.51171875
1731699274215.5312,-79.58984375,982.421875,981.4453125,-49.31640625,152.34375
1731699274219.4375,2.44140625,-618.65234375,-615.72265625,-44.43359375,-1000
1731699274223.3438,19.04296875,-1000,-1000,-35.15625,-426.7578125
1731699274227.25,-58.59375,-83.0078125,-104.00390625,-32.2265625,966.30859375
1731699274231.1562,-109.375,999.51171875,999.51171875,-62.01171875,583.984375
1731699274235.0625,-41.015625,-111.328125,-145.5078125,-56.640625,-919.43359375
1731699274238.9688,37.109375,-1000,-1000,-30.76171875,-823.2421875
1731699274242.875,-36.1328125,-670.41015625,-677.24609375,-27.34375,781.25
1731699274246.7812,-110.83984375,884.27734375,869.140625,-51.26953125,930.6640625
1731699274250.6875,-53.7109375,618.1640625,581.0546875,-53.7109375,-711.42578125
1731699274254.5938,29.296875,-1000,-1000,-37.59765625,-1000
1731699274258.5,-18.5546875,-955.078125,-944.3359375,-15.625,373.046875
1731699274262.4062,-109.375,688.96484375,691.89453125,-36.62109375,999.51171875
1731699274266.3125,-91.30859375,997.55859375,990.72265625,-41.50390625,-110.3515625
1731699274270.2188,17.578125,-729.4921875,-734.86328125,-19.04296875,-1000
1731699274274.125,20.99609375,-1000,-1000,-12.20703125,92.28515625
1731699274278.0312,-63.96484375,592.7734375,590.8203125,-25.87890625,999.51171875
1731699274281.9375,-86.9140625,999.51171875,999.51171875,-38.0859375,241.69921875
1731699274285.8438,-4.8828125,-359.375,-387.20703125,-32.2265625,-1000
1731699274289.75,28.80859375,-1000,-1000,-26.85546875,-647.4609375
1731699274293.6562,-48.828125,230.46875,222.65625,-31.25,874.0234375
1731699274297.5625,-97.65625,999.51171875,999.51171875,-51.7578125,616.2109375
1731699274301.4688,-22.4609375,328.125,256.8359375,-36.1328125,-958.984375
1731699274305.375,35.15625,-1000,-1000,-17.578125,-890.13671875
1731699274309.2812,-30.2734375,-531.73828125,-528.80859375,-16.11328125,692.3828125
1731699274313.1875,-102.5390625,999.51171875,992.67578125,-54.19921875,896.97265625
1731699274317.0938,-53.22265625,857.421875,845.21484375,-58.10546875,-688.4765625
1731699274321,45.41015625,-785.64453125,-802.24609375,-24.4140625,-1000
1731699274324.9062,-4.8828125,-1000,-995.60546875,-15.625,584.9609375
1731699274328.8125,-87.890625,711.9140625,716.30859375,-41.50390625,999.51171875
1731699274332.7188,-66.89453125,999.51171875,999.51171875,-37.59765625,-259.27734375
1731699274336.625,26.3671875,-671.875,-674.8046875,-31.73828125,-1000
1731699274340.5312,24.4140625,-1000,-1000,-14.6484375,-252.9296875
1731699274344.4375,-57.6171875,539.55078125,528.3203125,-19.53125,952.1484375
1731699274348.3438,-83.49609375,999.51171875,999.51171875,-40.0390625,369.62890625
1731699274352.25,-4.8828125,-365.72265625,-387.6953125,-35.64453125,-1000
1731699274356.1562,24.90234375,-1000,-1000,-34.66796875,-592.28515625
1731699274360.0625,-57.12890625,-7.8125,-11.23046875,-42.96875,915.52734375
1731699274363.9688,-111.328125,999.51171875,999.51171875,-62.98828125,739.74609375
1731699274367.875,-27.83203125,209.9609375,206.54296875,-47.8515625,-840.33203125
1731699274371.7812,37.109375,-1000,-1000,-29.78515625,-977.05078125
1731699274375.6875,-38.57421875,-590.33203125,-602.05078125,-29.296875,556.640625
1731699274379.5938,-110.83984375,922.36328125,912.109375,-54.19921875,999.51171875
1731699274383.5,-75.68359375,959.47265625,959.9609375,-44.43359375,-245.1171875
1731699274387.4062,31.25,-719.7265625,-721.6796875,-26.3671875,-1000
1731699274391.3125,8.7890625,-966.796875,-969.23828125,-17.08984375,-12.6953125
1731699274395.2188,-82.03125,703.61328125,704.1015625,-44.43359375,999.51171875
1731699274399.125,-75.1953125,999.51171875,999.51171875,-61.5234375,-146.484375
1731699274403.0312,20.01953125,-445.80078125,-458.49609375,-27.83203125,-1000
1731699274406.9375,24.4140625,-992.67578125,-997.0703125,-8.30078125,-167.48046875
1731699274410.8438,-61.5234375,553.22265625,550.29296875,-29.78515625,999.51171875
1731699274414.75,-97.65625,999.51171875,999.51171875,-50.78125,621.58203125
1731699274418.6562,-7.8125,406.73828125,370.60546875,-18.06640625,-911.62109375
1731699274422.5625,39.55078125,-852.5390625,-872.0703125,1.46484375,-710.9375
1731699274426.4688,-43.45703125,255.37109375,255.37109375,-10.25390625,873.046875
1731699274430.375,-104.98046875,999.51171875,999.51171875,-29.296875,924.8046875
1731699274434.2812,-41.50390625,804.6875,792.96875,-12.6953125,-705.078125
1731699274438.1875,51.26953125,-719.23828125,-731.4453125,-2.44140625,-1000
1731699274442.0938,-4.39453125,-470.21484375,-463.37890625,-7.32421875,576.66015625
1731699274446,-80.56640625,999.51171875,999.51171875,-29.78515625,999.51171875
1731699274449.9062,-41.9921875,957.51953125,956.0546875,-24.90234375,-235.3515625
1731699274453.8125,40.52734375,-612.3046875,-614.74609375,-13.18359375,-1000
1731699274457.7188,14.16015625,-990.72265625,-989.74609375,4.8828125,359.86328125
1731699274461.625,-67.3828125,674.8046875,685.546875,-10.25390625,999.51171875
1731699274465.5312,-73.73046875,999.51171875,999.51171875,-35.64453125,-237.3046875
1731699274469.4375,18.5546875,-346.6796875,-388.18359375,-18.06640625,-1000
1731699274473.3438,29.78515625,-1000,-1000,-9.27734375,-364.74609375
1731699274477.25,-47.8515625,478.515625,474.12109375,-29.296875,900.87890625
1731699274481.1562,-81.0546875,999.51171875,999.51171875,-43.45703125,476.5625
1731699274485.0625,-1.953125,302.24609375,259.765625,-29.78515625,-970.703125
1731699274488.9688,70.3125,-1000,-1000,-17.578125,-853.02734375
1731699274492.875,-12.6953125,-300.78125,-328.125,-8.7890625,717.7734375
1731699274496.7812,-99.609375,999.51171875,999.51171875,-34.66796875,933.59375
1731699274500.6875,-30.76171875,681.640625,663.0859375,-30.76171875,-699.70703125
1731699274504.5938,60.05859375,-901.3671875,-916.50390625,-16.11328125,-986.328125
1731699274508.5,-1.953125,-933.59375,-932.6171875,-24.90234375,578.125
1731699274512.4062,-87.40234375,762.20703125,756.34765625,-59.08203125,999.51171875
1731699274516.3125,-63.96484375,981.93359375,979.4921875,-61.03515625,-341.796875
1731699274520.2188,29.78515625,-728.02734375,-729.00390625,-50.29296875,-1000
1731699274524.125,26.85546875,-1000,-1000,-30.2734375,-68.359375
1731699274528.0312,-64.453125,616.2109375,610.83984375,-35.64453125,999.51171875
1731699274531.9375,-96.19140625,999.51171875,999.51171875,-44.921875,396.97265625
1731699274535.8438,11.23046875,-446.2890625,-466.30859375,-31.73828125,-947.75390625
1731699274539.75,45.41015625,-1000,-1000,-33.203125,-556.640625
1731699274543.6562,-52.734375,172.8515625,156.25,-39.55078125,900.390625
1731699274547.5625,-107.91015625,999.51171875,999.51171875,-51.7578125,881.34765625
1731699274551.4688,-30.76171875,122.0703125,80.078125,-56.15234375,-748.53515625
1731699274555.375,17.578125,-1000,-1000,-50.29296875,-975.5859375
1731699274559.2812,-79.58984375,-607.91015625,-609.375,-53.22265625,727.05078125
1731699274563.1875,-152.83203125,954.58984375,945.3125,-86.9140625,979.00390625
1731699274567.0938,-92.7734375,758.30078125,727.05078125,-109.375,-673.33984375
1731699274571,-25.390625,-896.484375,-917.96875,-113.76953125,-1000
1731699274574.9062,-102.05078125,-1000,-994.140625,-132.32421875,339.35546875
1731699274578.8125,-217.28515625,689.453125,690.91796875,-181.640625,999.51171875
1731699274582.7188,-226.5625,982.91015625,975.09765625,-217.28515625,-232.421875
1731699274586.625,-155.2734375,-673.828125,-684.5703125,-224.609375,-1000
1731699274590.5312,-172.36328125,-1000,-1000,-220.21484375,63.96484375
1731699274594.4375,-275.87890625,367.67578125,370.60546875,-256.8359375,999.51171875
1731699274598.3438,-339.35546875,999.51171875,999.51171875,-279.296875,280.2734375
1731699274602.25,-220.703125,-452.1484375,-464.84375,-258.7890625,-1000
1731699274606.1562,-158.69140625,-1000,-1000,-245.1171875,-547.8515625
1731699274610.0625,-272.4609375,-450.68359375,-446.77734375,-256.8359375,959.47265625
1731699274613.9688,-329.1015625,935.546875,923.33984375,-282.71484375,738.28125
1731699274617.875,-230.46875,19.53125,-16.11328125,-264.16015625,-870.60546875
1731699274621.7812,-149.90234375,-1000,-1000,-233.88671875,-897.4609375
1731699274625.6875,-218.75,-857.91015625,-859.86328125,-221.6796875,695.3125
1731699274629.5938,-270.99609375,725.09765625,717.28515625,-236.81640625,945.3125
1731699274633.5,-196.77734375,751.46484375,718.26171875,-224.609375,-620.1171875
1731699274637.4062,-100.09765625,-942.87109375,-960.44921875,-189.453125,-1000
1731699274641.3125,-132.32421875,-1000,-1000,-170.41015625,107.421875
1731699274645.2188,-217.7734375,580.56640625,570.80078125,-180.17578125,963.37890625
1731699274649.125,-211.9140625,983.88671875,980.95703125,-157.2265625,-258.30078125
1731699274653.0312,-55.17578125,-620.1171875,-623.046875,-121.09375,-1000
1731699274656.9375,-28.3203125,-1000,-1000,-104.4921875,-258.7890625
1731699274660.8438,-131.34765625,50.78125,26.3671875,-99.12109375,984.375
1731699274664.75,-135.25390625,941.89453125,930.17578125,-83.0078125,408.203125
1731699274668.6562,-19.04296875,-476.07421875,-471.6796875,-73.73046875,-1000
1731699274672.5625,48.33984375,-1000,-1000,-63.96484375,-728.515625
1731699274676.4688,-32.2265625,-663.57421875,-668.9453125,-46.875,841.796875
1731699274680.375,-84.9609375,804.6875,792.48046875,-56.640625,858.3984375
1731699274684.2812,15.625,97.65625,87.40234375,-41.015625,-781.25
1731699274688.1875,91.796875,-1000,-1000,-19.04296875,-993.65234375
1731699274692.0938,31.25,-902.83203125,-905.76171875,-10.7421875,472.16796875
1731699274696,-49.31640625,661.1328125,657.2265625,-14.16015625,999.51171875
1731699274699.9062,-33.203125,862.79296875,856.93359375,20.5078125,-42.96875
1731699274703.8125,102.05078125,-834.47265625,-840.33203125,33.69140625,-1000
1731699274707.7188,70.80078125,-1000,-1000,28.80859375,74.70703125
1731699274711.625,-26.3671875,458.984375,451.171875,14.16015625,999.51171875
1731699274715.5312,-5.859375,967.7734375,967.7734375,6.8359375,56.15234375
1731699274719.4375,101.5625,-609.375,-612.3046875,33.69140625,-1000
1731699274723.3438,119.140625,-1000,-1000,44.43359375,-192.87109375
1731699274727.25,21.484375,-271.484375,-244.62890625,15.13671875,999.51171875
1731699274731.1562,-28.3203125,808.59375,819.82421875,3.41796875,659.1796875
1731699274735.0625,78.61328125,-336.42578125,-336.9140625,23.92578125,-854.4921875
1731699274738.9688,162.59765625,-1000,-1000,43.45703125,-841.796875
1731699274742.875,42.48046875,-810.546875,-796.875,32.2265625,816.40625
1731699274746.7812,-41.9921875,704.1015625,714.84375,-6.8359375,732.421875
1731699274750.6875,50.78125,225.09765625,205.078125,-1.953125,-826.171875
1731699274754.5938,138.671875,-1000,-1000,30.2734375,-1000
1731699274758.5,61.5234375,-965.8203125,-969.23828125,45.8984375,485.83984375
1731699274762.4062,-24.4140625,603.02734375,591.796875,7.8125,999.51171875
1731699274766.3125,22.4609375,784.1796875,757.8125,-2.9296875,-560.546875
1731699274770.2188,110.83984375,-831.54296875,-847.65625,29.296875,-1000
1731699274774.125,67.87109375,-1000,-1000,41.50390625,130.859375
1731699274778.0312,-22.94921875,37.59765625,35.64453125,24.4140625,999.51171875
1731699274781.9375,-42.48046875,884.27734375,880.859375,18.5546875,82.51953125
1731699274785.8438,63.96484375,-545.8984375,-547.8515625,39.55078125,-1000
1731699274789.75,96.6796875,-1000,-1000,49.8046875,16.11328125
1731699274793.6562,-6.34765625,-595.703125,-598.6328125,27.83203125,999.51171875
1731699274797.5625,-38.0859375,676.26953125,663.57421875,13.18359375,556.15234375
1731699274801.4688,56.640625,-328.61328125,-335.44921875,23.4375,-879.39453125
1731699274805.375,123.046875,-1000,-1000,24.4140625,-930.6640625
1731699274809.2812,36.62109375,-837.40234375,-834.9609375,31.25,685.05859375
1731699274813.1875,-45.8984375,662.59765625,660.64453125,13.671875,938.4765625
1731699274817.0938,35.64453125,297.36328125,288.57421875,20.5078125,-696.2890625
1731699274821,131.34765625,-1000,-1000,34.66796875,-1000
1731699274824.9062,53.22265625,-998.046875,-997.55859375,44.921875,261.71875
1731699274828.8125,-53.7109375,528.3203125,524.90234375,21.484375,999.51171875
1731699274832.7188,-31.25,916.9921875,917.48046875,16.6015625,54.6875
1731699274836.625,84.47265625,-732.421875,-726.5625,28.80859375,-978.02734375
1731699274840.5312,75.1953125,-1000,-1000,40.52734375,-158.203125
1731699274844.4375,-32.2265625,188.4765625,161.1328125,27.83203125,999.51171875
1731699274848.3438,-51.26953125,943.359375,937.5,10.7421875,502.9296875
1731699274852.25,49.8046875,-556.640625,-549.8046875,25.390625,-936.03515625
1731699274856.1562,83.0078125,-1000,-1000,31.25,-766.6015625
1731699274860.0625,-22.94921875,-400.390625,-400.390625,33.69140625,835.9375
1731699274863.9688,-102.5390625,978.02734375,970.703125,24.4140625,682.6171875
1731699274867.875,-8.7890625,168.45703125,138.671875,34.1796875,-921.875
1731699274871.7812,84.47265625,-1000,-1000,31.73828125,-917.48046875
1731699274875.6875,-4.8828125,-797.36328125,-776.3671875,29.78515625,737.79296875
1731699274879.5938,-96.19140625,791.50390625,803.7109375,6.8359375,912.59765625
1731699274883.5,-33.203125,876.953125,855.95703125,8.7890625,-695.3125
1731699274887.4062,58.10546875,-848.6328125,-863.28125,20.01953125,-1000
1731699274891.3125,3.41796875,-1000,-997.55859375,37.109375,350.09765625
1731699274895.2188,-86.9140625,679.19921875,687.5,15.13671875,999.51171875
1731699274899.125,-56.640625,999.51171875,999.51171875,-3.90625,-180.6640625
1731699274903.0312,41.9921875,-669.43359375,-673.828125,14.6484375,-1000
1731699274906.9375,17.578125,-1000,-1000,37.59765625,-19.53125
1731699274910.8438,-73.73046875,539.55078125,537.109375,24.90234375,999.51171875
1731699274914.75,-88.37890625,999.51171875,999.51171875,-4.39453125,454.58984375
1731699274918.6562,10.25390625,56.640625,25.87890625,5.37109375,-965.8203125
1731699274922.5625,47.8515625,-1000,-1000,24.90234375,-291.50390625
1731699274926.4688,-54.6875,256.34765625,246.09375,30.2734375,999.51171875
1731699274930.375,-119.140625,999.51171875,999.51171875,0.9765625,786.1328125
1731699274934.2812,-30.76171875,778.3203125,770.5078125,6.34765625,-729.00390625
1731699274938.1875,43.45703125,-708.0078125,-716.796875,29.296875,-801.7578125
1731699274942.0938,-28.3203125,-143.06640625,-139.16015625,34.1796875,711.9140625
1731699274946,-116.69921875,999.51171875,999.51171875,9.27734375,999.51171875
1731699274949.9062,-87.890625,999.51171875,999.51171875,23.4375,-324.70703125
1731699274953.8125,20.5078125,-410.15625,-381.8359375,28.3203125,-1000
1731699274957.7188,-11.23046875,-453.125,-453.61328125,29.78515625,214.84375
1731699274961.625,-110.3515625,924.8046875,917.48046875,25.87890625,999.51171875
1731699274965.5312,-102.5390625,999.51171875,999.51171875,19.53125,238.76953125
1731699274969.4375,-5.859375,564.453125,544.43359375,28.3203125,-988.28125
1731699274973.3438,16.6015625,-328.61328125,-322.75390625,24.4140625,-262.20703125
1731699274977.25,-76.66015625,669.921875,679.6875,13.671875,999.51171875
1731699274981.1562,-126.953125,999.51171875,999.51171875,-8.30078125,518.06640625
1731699274985.0625,-32.71484375,787.59765625,787.59765625,3.41796875,-950.1953125
1731699274988.9688,24.90234375,-151.85546875,-113.28125,38.0859375,-645.5078125
1731699274992.875,-59.5703125,547.8515625,566.89453125,44.921875,869.140625
1731699274996.7812,-153.3203125,999.51171875,999.51171875,18.06640625,988.76953125
1731699275000.6875,-84.47265625,917.48046875,916.50390625,29.78515625,-588.37890625
1731699275004.5938,47.8515625,397.94921875,397.94921875,35.64453125,-1000
1731699275008.5,-23.4375,635.25390625,642.08984375,41.50390625,541.015625
1731699275012.4062,-123.53515625,999.51171875,999.51171875,24.90234375,999.51171875
1731699275016.3125,-77.63671875,952.63671875,956.0546875,23.4375,-49.8046875
1731699275020.2188,29.296875,895.01953125,877.44140625,35.15625,-1000
1731699275024.125,-2.9296875,861.328125,845.21484375,47.8515625,179.6875
1731699275028.0312,-101.07421875,981.4453125,982.91015625,20.5078125,999.51171875
1731699275031.9375,-96.19140625,976.07421875,979.4921875,0.9765625,-19.53125
1731699275035.8438,-3.90625,943.84765625,935.05859375,21.484375,-1000
1731699275039.75,22.94921875,921.875,896.484375,47.8515625,-341.796875
1731699275043.6562,-59.5703125,971.6796875,970.703125,37.59765625,999.51171875
1731699275047.5625,-151.3671875,970.703125,972.16796875,20.01953125,746.58203125
1731699275051.4688,-57.6171875,967.28515625,965.8203125,58.59375,-833.0078125
1731699275055.375,9.765625,969.23828125,969.23828125,54.19921875,-541.015625
1731699275059.2812,-83.49609375,969.23828125,969.23828125,37.59765625,926.26953125
1731699275063.1875,-132.32421875,969.23828125,969.23828125,17.578125,942.87109375
1731699275067.0938,-68.84765625,969.23828125,969.23828125,14.6484375,-616.2109375
1731699275071,10.25390625,969.23828125,969.23828125,40.0390625,-979.98046875
1731699275074.9062,-44.43359375,968.75,968.75,62.5,639.6484375
1731699275078.8125,-135.7421875,968.75,969.23828125,22.4609375,999.51171875
1731699275082.7188,-139.6484375,969.23828125,969.23828125,41.9921875,-44.921875
1731699275086.625,-9.765625,969.23828125,969.23828125,76.171875,-935.546875
1731699275090.5312,-10.25390625,969.23828125,969.23828125,65.4296875,228.02734375
1731699275094.4375,-110.83984375,969.23828125,969.23828125,46.875,999.51171875
1731699275098.3438,-113.28125,969.23828125,969.23828125,53.22265625,838.8671875
1731699275102.25,-30.76171875,969.23828125,969.23828125,60.05859375,-677.734375
1731699275106.1562,-15.13671875,969.23828125,969.23828125,66.89453125,-323.73046875
1731699275110.0625,-82.03125,969.23828125,969.23828125,85.44921875,957.03125
1731699275113.9688,-97.65625,969.23828125,968.75,139.6484375,999.51171875
1731699275117.875,-70.80078125,969.23828125,969.23828125,91.796875,755.859375
1731699275121.7812,-29.296875,969.23828125,969.23828125,-13.18359375,-603.515625
1731699275125.6875,-48.828125,969.23828125,969.23828125,67.3828125,312.5
1731699275129.5938,-57.12890625,969.23828125,969.23828125,228.515625,999.51171875
1731699275133.5,-17.08984375,969.23828125,969.23828125,202.63671875,884.765625
1731699275137.4062,-17.578125,969.23828125,969.23828125,24.4140625,963.37890625
1731699275141.3125,-42.96875,969.23828125,969.23828125,56.15234375,951.66015625
1731699275145.2188,-28.80859375,969.23828125,968.75,238.76953125,971.6796875
1731699275149.125,-41.015625,969.23828125,969.23828125,248.046875,967.28515625
1731699275153.0312,-35.15625,969.23828125,968.75,62.01171875,968.26171875
1731699275156.9375,-34.1796875,968.75,969.23828125,40.52734375,968.26171875
1731699275160.8438,-37.59765625,969.23828125,969.23828125,216.30859375,968.26171875
1731699275164.75,-30.2734375,969.23828125,968.75,256.34765625,968.26171875
1731699275168.6562,-20.99609375,969.23828125,968.75,72.75390625,968.26171875
1731699275172.5625,-9.27734375,968.75,969.23828125,-16.6015625,968.26171875
1731699275176.4688,-12.6953125,969.23828125,969.23828125,153.3203125,968.26171875
1731699275180.375,-20.99609375,969.23828125,968.75,241.2109375,968.26171875
1731699275184.2812,-5.37109375,969.23828125,968.75,90.33203125,968.26171875
1731699275188.1875,-3.41796875,968.75,969.23828125,-53.7109375,968.26171875
1731699275192.0938,-27.83203125,968.75,968.75,49.8046875,968.26171875
1731699275196,-30.76171875,969.23828125,968.75,181.640625,968.26171875
1731699275199.9062,-19.04296875,969.23828125,969.23828125,112.3046875,968.26171875
1731699275203.8125,-9.27734375,969.23828125,969.23828125,-60.05859375,968.26171875
1731699275207.7188,-25.390625,969.23828125,969.23828125,-32.2265625,968.26171875
1731699275211.625,-10.7421875,968.75,969.23828125,117.1875,968.26171875
1731699275215.5312,-4.8828125,968.75,968.75,108.88671875,968.26171875
1731699275219.4375,-6.8359375,968.75,968.75,-70.80078125,968.26171875
1731699275223.3438,-7.8125,969.23828125,969.23828125,-108.3984375,968.75
1731699275227.25,-4.8828125,969.23828125,969.23828125,40.0390625,964.84375
1731699275231.1562,-23.92578125,969.23828125,969.23828125,107.91015625,972.16796875
1731699275235.0625,-6.8359375,969.23828125,968.75,-41.9921875,967.28515625
1731699275238.9688,24.4140625,969.7265625,969.23828125,-188.96484375,909.1796875
1731699275242.875,7.32421875,965.33203125,965.8203125,-61.03515625,899.4140625
1731699275246.7812,6.8359375,967.7734375,966.796875,67.3828125,993.1640625
1731699275250.6875,15.13671875,991.2109375,991.2109375,-46.875,999.51171875
1731699275254.5938,5.37109375,787.109375,802.734375,-211.9140625,-456.0546875
1731699275258.5,-12.20703125,831.0546875,834.47265625,-155.2734375,-416.015625
1731699275262.4062,-18.06640625,940.4296875,941.40625,6.34765625,999.51171875
1731699275266.3125,-41.015625,999.51171875,999.51171875,-5.859375,927.734375
1731699275270.2188,-12.20703125,110.3515625,52.734375,-215.33203125,-634.27734375
1731699275274.125,-12.20703125,-679.19921875,-741.2109375,-219.7265625,-1000
1731699275278.0312,-8.30078125,731.4453125,713.8671875,-32.2265625,667.48046875
1731699275281.9375,-7.8125,999.51171875,999.51171875,-13.671875,999.51171875
1731699275285.8438,-8.7890625,54.19921875,18.06640625,-172.36328125,-533.69140625
1731699275289.75,7.32421875,-888.18359375,-903.80859375,-224.12109375,-1000
1731699275293.6562,3.90625,409.66796875,411.1328125,-77.63671875,246.09375
1731699275297.5625,-19.04296875,999.51171875,999.51171875,21.484375,999.51171875
1731699275301.4688,-19.53125,271.97265625,241.69921875,-131.34765625,-251.46484375
1731699275305.375,-18.5546875,-1000,-1000,-267.08984375,-1000
1731699275309.2812,-13.18359375,-804.6875,-828.125,-145.5078125,-846.6796875
1731699275313.1875,-20.5078125,877.44140625,853.02734375,0.48828125,719.7265625
1731699275317.0938,-41.9921875,633.7890625,636.71875,-67.87109375,387.6953125
1731699275321,-9.27734375,-908.203125,-916.50390625,-263.671875,-1000
1731699275324.9062,-22.94921875,-1000,-1000,-211.9140625,-1000
1731699275328.8125,-23.92578125,43.9453125,51.26953125,-47.36328125,14.16015625
1731699275332.7188,-19.04296875,221.6796875,192.3828125,-88.37890625,-242.1875
1731699275336.625,-32.2265625,-1000,-1000,-272.94921875,-1000
1731699275340.5312,-33.69140625,-1000,-1000,-261.71875,-957.51953125
1731699275344.4375,-15.625,-965.33203125,-967.7734375,-76.66015625,-996.09375
1731699275348.3438,-24.90234375,-1000,-1000,-39.55078125,-1000
1731699275352.25,-31.25,-1000,-1000,-211.9140625,-1000
1731699275356.1562,-38.0859375,-1000,-1000,-285.64453125,-1000
1731699275360.0625,-37.59765625,-1000,-1000,-133.7890625,-1000
1731699275363.9688,-57.12890625,-1000,-1000,-32.2265625,-1000
1731699275367.875,-57.6171875,-1000,-1000,-152.34375,-1000
1731699275371.7812,-30.76171875,-1000,-1000,-296.875,-1000
1731699275375.6875,-43.9453125,-1000,-1000,-167.96875,-1000
1731699275379.5938,-40.0390625,-1000,-1000,-21.484375,-1000
1731699275383.5,-36.62109375,-1000,-1000,-108.3984375,-1000
1731699275387.4062,-21.484375,-1000,-1000,-230.46875,-1000
1731699275391.3125,-37.109375,-1000,-1000,-175.78125,-1000
1731699275395.2188,-44.921875,-1000,-1000,-66.89453125,-1000
1731699275399.125,-32.71484375,-1000,-1000,-70.3125,-1000
1731699275403.0312,-12.6953125,-1000,-1000,-151.3671875,-1000
1731699275406.9375,-10.7421875,-1000,-1000,-147.94921875,-1000
1731699275410.8438,-43.9453125,-1000,-1000,-112.79296875,-1000
1731699275414.75,-65.4296875,-1000,-1000,-72.75390625,-1000
1731699275418.6562,-18.5546875,-1000,-1000,-100.09765625,-1000
1731699275422.5625,36.1328125,-1000,-1000,-104.4921875,-1000
1731699275426.4688,-21.484375,-1000,-1000,-102.05078125,-1000
1731699275430.375,-83.0078125,-1000,-1000,-124.0234375,-1000
1731699275434.2812,-21.97265625,-1000,-1000,-97.65625,-1000
1731699275438.1875,49.31640625,-1000,-1000,-75.1953125,-1000
1731699275442.0938,-3.41796875,-1000,-1000,-82.03125,-1000
1731699275446,-85.9375,-1000,-1000,-119.62890625,-1000
1731699275449.9062,-53.7109375,-1000,-1000,-111.81640625,-1000
1731699275453.8125,99.12109375,-1000,-1000,-65.91796875,-1000
1731699275457.7188,-2.44140625,-1000,-1000,-102.05078125,-1000
1731699275461.625,-199.70703125,-1000,-1000,-167.48046875,-1000
1731699275465.5312,-81.0546875,-1000,-1000,-115.234375,-1000
1731699275469.4375,134.765625,-1000,-1000,-48.828125,-1000
1731699275473.3438,34.1796875,-1000,-1000,-101.07421875,-1000
1731699275477.25,-210.9375,-1000,-1000,-173.33984375,-1000
1731699275481.1562,-171.38671875,-1000,-1000,-151.3671875,-997.0703125
1731699275485.0625,92.28515625,-1000,-1000,-57.12890625,-1000
1731699275488.9688,93.26171875,-1000,-1000,-76.171875,-997.55859375
1731699275492.875,-177.734375,-1000,-1000,-162.59765625,-935.05859375
1731699275496.7812,-229.98046875,-1000,-1000,-165.0390625,-965.33203125
1731699275500.6875,21.97265625,-995.1171875,-997.55859375,-59.08203125,-1000
1731699275504.5938,129.8828125,-997.0703125,-997.0703125,-37.59765625,-998.53515625
1731699275508.5,-134.27734375,-1000,-1000,-102.5390625,-737.79296875
1731699275512.4062,-289.0625,-738.28125,-850.5859375,-143.5546875,-848.14453125
1731699275516.3125,-67.87109375,-809.08203125,-888.18359375,-68.84765625,-1000
1731699275520.2188,121.09375,-995.60546875,-978.515625,-15.13671875,-1000
1731699275524.125,-58.10546875,-1000,-1000,-90.8203125,-456.0546875
1731699275528.0312,-266.11328125,-439.94140625,-497.55859375,-169.921875,-54.19921875
1731699275531.9375,-135.7421875,-60.546875,-173.828125,-109.86328125,-772.4609375
1731699275535.8438,118.1640625,-935.05859375,-945.3125,-13.18359375,-1000
1731699275539.75,32.2265625,-1000,-1000,-45.8984375,-437.98828125
1731699275543.6562,-242.67578125,-506.34765625,-539.0625,-144.53125,621.09375
1731699275547.5625,-237.3046875,693.359375,666.015625,-124.0234375,-322.75390625
1731699275551.4688,62.01171875,-470.703125,-472.16796875,5.37109375,-1000
1731699275555.375,127.44140625,-1000,-1000,-12.20703125,-847.16796875
1731699275559.2812,-174.31640625,-658.69140625,-663.57421875,-105.95703125,664.0625
1731699275563.1875,-257.8125,733.88671875,707.03125,-105.46875,618.1640625
1731699275567.0938,39.55078125,-140.625,-178.7109375,-11.71875,-975.09765625
1731699275571,181.640625,-1000,-1000,27.34375,-1000
1731699275574.9062,-102.05078125,-854.00390625,-849.609375,-63.96484375,549.8046875
1731699275578.8125,-289.0625,683.59375,683.59375,-131.8359375,920.8984375
1731699275582.7188,-63.96484375,804.19921875,784.66796875,-22.4609375,-714.35546875
1731699275586.625,169.43359375,-939.453125,-948.2421875,63.96484375,-1000
1731699275590.5312,-14.16015625,-1000,-1000,-28.3203125,189.94140625
1731699275594.4375,-265.625,668.45703125,660.64453125,-115.234375,999.51171875
1731699275598.3438,-142.08984375,999.51171875,999.51171875,-41.015625,-362.79296875
1731699275602.25,144.53125,-676.26953125,-673.828125,62.01171875,-1000
1731699275606.1562,62.01171875,-1000,-1000,13.671875,-350.09765625
1731699275610.0625,-253.41796875,428.22265625,421.875,-81.54296875,967.7734375
1731699275613.9688,-255.37109375,999.51171875,999.51171875,-59.08203125,172.8515625
1731699275617.875,68.359375,-311.03515625,-331.0546875,54.19921875,-1000
1731699275621.7812,141.11328125,-1000,-1000,47.8515625,-759.27734375
1731699275625.6875,-168.45703125,-273.4375,-267.08984375,-45.8984375,805.6640625
1731699275629.5938,-287.109375,999.51171875,999.51171875,-74.21875,931.15234375
1731699275633.5,3.90625,492.1875,453.61328125,24.90234375,-757.32421875
1731699275637.4062,178.7109375,-1000,-1000,60.546875,-1000
1731699275641.3125,-72.265625,-900.87890625,-890.625,-23.92578125,621.09375
1731699275645.2188,-281.25,740.72265625,744.140625,-95.703125,999.51171875
1731699275649.125,-117.1875,988.76953125,982.91015625,-1.46484375,-630.37109375
1731699275653.0312,164.0625,-725.5859375,-730.95703125,70.3125,-1000
1731699275656.9375,21.484375,-1000,-1000,-15.13671875,334.47265625
1731699275660.8438,-250,665.52734375,662.59765625,-97.16796875,999.51171875
1731699275664.75,-148.92578125,997.55859375,998.046875,-43.45703125,-300.78125
1731699275668.6562,142.578125,-647.4609375,-648.4375,58.59375,-1000
1731699275672.5625,92.28515625,-1000,-1000,21.97265625,-191.89453125
1731699275676.4688,-214.35546875,230.46875,239.2578125,-78.61328125,999.51171875
1731699275680.375,-239.2578125,999.51171875,999.51171875,-62.5,571.2890625
1731699275684.2812,63.4765625,-66.40625,-87.890625,60.546875,-965.8203125
1731699275688.1875,161.1328125,-1000,-1000,53.22265625,-891.11328125
1731699275692.0938,-152.83203125,-502.44140625,-495.60546875,-59.08203125,777.83203125
1731699275696,-292.96875,999.51171875,999.51171875,-93.26171875,953.125
1731699275699.9062,-13.18359375,694.3359375,681.15234375,11.23046875,-743.1640625
1731699275703.8125,177.734375,-954.1015625,-961.42578125,68.359375,-1000
1731699275707.7188,-59.08203125,-947.75390625,-944.3359375,-25.87890625,581.0546875
1731699275711.625,-266.11328125,728.02734375,728.515625,-102.5390625,999.51171875
1731699275715.5312,-78.61328125,999.51171875,999.51171875,-3.90625,-468.75
1731699275719.4375,168.45703125,-714.84375,-715.8203125,101.07421875,-1000
1731699275723.3438,40.0390625,-1000,-1000,4.39453125,133.7890625
1731699275727.25,-243.65234375,634.765625,637.20703125,-105.95703125,999.51171875
1731699275731.1562,-205.56640625,999.51171875,999.51171875,-38.0859375,200.68359375
1731699275735.0625,112.79296875,-472.16796875,-489.74609375,86.9140625,-1000
1731699275738.9688,126.46484375,-1000,-1000,48.828125,-518.06640625
1731699275742.875,-201.171875,255.859375,257.8125,-67.3828125,980.46875
1731699275746.7812,-248.046875,999.51171875,999.51171875,-73.73046875,835.44921875
1731699275750.6875,55.6640625,209.9609375,169.921875,46.38671875,-821.77734375
1731699275754.5938,161.1328125,-1000,-1000,85.44921875,-965.33203125
1731699275758.5,-125.48828125,-452.1484375,-443.84765625,-6.34765625,741.69921875
1731699275762.4062,-261.71875,999.51171875,999.51171875,-49.31640625,897.4609375
1731699275766.3125,-28.80859375,869.140625,860.3515625,38.57421875,-741.2109375
1731699275770.2188,156.25,-791.9921875,-801.7578125,97.16796875,-1000
1731699275774.125,-57.6171875,-917.48046875,-913.57421875,15.625,567.3828125
1731699275778.0312,-289.55078125,792.48046875,796.38671875,-69.3359375,999.51171875
1731699275781.9375,-134.27734375,999.51171875,999.51171875,15.13671875,-328.61328125
1731699275785.8438,168.9453125,-629.8828125,-643.06640625,98.14453125,-1000
1731699275789.75,51.26953125,-1000,-1000,13.18359375,105.46875
1731699275793.6562,-249.0234375,593.26171875,600.09765625,-60.546875,999.51171875
1731699275797.5625,-174.31640625,999.51171875,999.51171875,-24.90234375,441.40625
1731699275801.4688,130.37109375,-87.40234375,-143.5546875,66.40625,-1000
1731699275805.375,117.1875,-1000,-1000,56.640625,-588.37890625
1731699275809.2812,-191.89453125,380.37109375,408.203125,-37.59765625,947.75390625
1731699275813.1875,-244.140625,999.51171875,999.51171875,-47.36328125,936.5234375
1731699275817.0938,52.734375,708.0078125,672.36328125,48.828125,-716.796875
1731699275821,192.87109375,-807.12890625,-833.0078125,71.77734375,-1000
1731699275824.9062,-84.47265625,-265.13671875,-248.53515625,-14.6484375,678.22265625
1731699275828.8125,-250.9765625,999.51171875,999.51171875,-48.828125,999.51171875
1731699275832.7188,-35.64453125,890.13671875,887.20703125,46.875,-440.4296875
1731699275836.625,168.9453125,-703.61328125,-705.078125,91.30859375,-1000
1731699275840.5312,-19.53125,-858.88671875,-859.86328125,0.9765625,263.18359375
1731699275844.4375,-251.953125,831.0546875,834.9609375,-45.41015625,999.51171875
1731699275848.3438,-110.3515625,999.51171875,999.51171875,48.828125,453.125
1731699275852.25,157.2265625,-499.51171875,-526.85546875,97.16796875,-994.140625
1731699275856.1562,77.63671875,-997.0703125,-994.62890625,43.45703125,-303.22265625
1731699275860.0625,-211.42578125,559.5703125,565.4296875,-22.94921875,999.51171875
1731699275863.9688,-174.31640625,999.51171875,999.51171875,43.45703125,902.34375
1731699275867.875,92.7734375,330.078125,300.29296875,92.7734375,-687.5
1731699275871.7812,112.3046875,-833.49609375,-847.65625,60.546875,-967.28515625
1731699275875.6875,-164.55078125,395.01953125,395.01953125,-13.18359375,660.15625
1731699275879.5938,-212.890625,999.51171875,999.51171875,62.98828125,999.51171875
1731699275883.5,38.0859375,783.203125,775.390625,99.609375,-143.06640625
1731699275887.4062,155.2734375,-650.390625,-667.48046875,56.15234375,-1000
1731699275891.3125,-87.890625,-37.59765625,-66.89453125,6.34765625,43.9453125
1731699275895.2188,-212.40234375,999.51171875,999.51171875,65.4296875,999.51171875
1731699275899.125,-11.71875,925.29296875,911.1328125,115.72265625,716.30859375
1731699275903.0312,158.203125,-597.16796875,-627.9296875,45.41015625,-844.23828125
1731699275906.9375,-2.9296875,-765.625,-785.15625,-33.203125,-807.12890625
1731699275910.8438,-203.61328125,836.42578125,832.03125,11.71875,805.17578125
1731699275914.75,-95.703125,999.51171875,999.51171875,146.484375,960.44921875
1731699275918.6562,119.140625,-58.59375,-145.99609375,51.26953125,-647.4609375
1731699275922.5625,73.2421875,-921.875,-947.265625,-57.6171875,-1000
1731699275926.4688,-188.96484375,518.06640625,526.85546875,-15.13671875,355.46875
1731699275930.375,-148.92578125,999.51171875,999.51171875,127.44140625,999.51171875
1731699275934.2812,87.40234375,549.31640625,485.3515625,38.0859375,-275.87890625
1731699275938.1875,97.16796875,-727.5390625,-791.9921875,-75.1953125,-1000
1731699275942.0938,-175.29296875,319.3359375,303.22265625,-37.109375,-357.421875
1731699275946,-213.37890625,999.51171875,999.51171875,135.7421875,999.51171875
1731699275949.9062,7.8125,809.5703125,817.3828125,130.37109375,702.63671875
1731699275953.8125,115.234375,-671.38671875,-678.22265625,-36.1328125,-960.9375
1731699275957.7188,-96.19140625,-237.3046875,-316.40625,-60.05859375,-831.54296875
1731699275961.625,-217.7734375,999.51171875,999.51171875,124.51171875,857.421875
1731699275965.5312,-35.15625,988.76953125,969.23828125,153.3203125,980.46875
1731699275969.4375,100.09765625,-521.97265625,-573.2421875,-59.5703125,-705.56640625
1731699275973.3438,-54.6875,-852.05078125,-894.53125,-105.46875,-1000
1731699275977.25,-215.8203125,747.0703125,714.35546875,79.58984375,642.578125
1731699275981.1562,-82.51953125,999.51171875,999.51171875,200.1953125,999.51171875
1731699275985.0625,105.46875,164.0625,49.31640625,-16.11328125,-505.859375
1731699275988.9688,30.76171875,-855.95703125,-894.53125,-157.71484375,-1000
1731699275992.875,-182.12890625,482.91015625,500.48828125,11.71875,436.5234375
1731699275996.7812,-147.94921875,999.51171875,999.51171875,219.23828125,999.51171875
1731699276000.6875,57.12890625,680.17578125,667.96875,70.3125,378.90625
1731699276004.5938,85.44921875,-697.265625,-748.046875,-166.50390625,-1000
1731699276008.5,-114.2578125,150.390625,76.171875,-90.8203125,-314.453125
1731699276012.4062,-146.484375,999.51171875,999.51171875,140.13671875,999.51171875
1731699276016.3125,50.78125,840.33203125,846.6796875,87.40234375,823.73046875
1731699276020.2188,116.2109375,-689.94140625,-690.4296875,-166.50390625,-776.3671875
1731699276024.125,-66.89453125,-764.6484375,-824.21875,-173.33984375,-974.609375
1731699276028.0312,-153.3203125,937.01171875,906.25,67.87109375,757.32421875
1731699276031.9375,0.9765625,999.51171875,999.0234375,138.671875,999.51171875
1731699276035.8438,133.7890625,-635.25390625,-659.1796875,-130.37109375,-712.40234375
1731699276039.75,0.9765625,-1000,-1000,-226.5625,-1000
1731699276043.6562,-135.7421875,608.3984375,611.81640625,-32.71484375,643.5546875
1731699276047.5625,-91.30859375,999.51171875,999.51171875,160.64453125,999.51171875
1731699276051.4688,144.04296875,-124.0234375,-156.25,-107.91015625,-425.29296875
1731699276055.375,807.6171875,-1000,-1000,-838.8671875,-1000
1731699276059.2812,582.51953125,-960.44921875,-956.0546875,-1000,-930.6640625
1731699276063.1875,-8.30078125,-988.76953125,-990.72265625,-947.265625,-1000
1731699276067.0938,130.37109375,-1000,-1000,-694.3359375,-1000
1731699276071,182.12890625,-1000,-1000,-444.82421875,-1000
1731699276074.9062,-168.45703125,-1000,-1000,-432.12890625,-1000
1731699276078.8125,-368.65234375,-1000,-1000,-418.45703125,-1000
1731699276082.7188,-125.48828125,-1000,-1000,-255.859375,-1000
1731699276086.625,85.44921875,-1000,-1000,-121.58203125,-1000
1731699276090.5312,-140.13671875,-1000,-1000,-152.34375,-1000
1731699276094.4375,-384.765625,-1000,-1000,-212.890625,-1000
1731699276098.3438,-244.62890625,-1000,-1000,-133.30078125,-1000
1731699276102.25,54.19921875,-943.359375,-963.37890625,0,-1000
1731699276106.1562,-19.04296875,-1000,-1000,-33.203125,-1000
1731699276110.0625,-333.49609375,-851.5625,-896.97265625,-116.69921875,-1000
1731699276113.9688,-300.78125,-73.73046875,-432.6171875,-66.40625,-997.55859375
1731699276117.875,28.80859375,-704.1015625,-806.15234375,53.22265625,-1000
1731699276121.7812,66.89453125,-1000,-1000,46.875,-1000
1731699276125.6875,-253.41796875,-791.9921875,-815.91796875,-44.921875,-898.92578125
1731699276129.5938,-355.46875,482.91015625,459.47265625,-88.8671875,-925.29296875
1731699276133.5,-65.4296875,-330.078125,-362.79296875,23.92578125,-994.140625
1731699276137.4062,85.9375,-1000,-1000,90.8203125,-1000
1731699276141.3125,-175.29296875,-875.48828125,-881.34765625,1.46484375,-506.8359375
1731699276145.2188,-349.12109375,640.625,631.8359375,-55.6640625,-147.4609375
1731699276149.125,-136.23046875,740.72265625,684.08203125,30.2734375,-831.54296875
1731699276153.0312,128.41796875,-952.1484375,-980.46875,104.4921875,-1000
1731699276156.9375,-41.9921875,-1000,-1000,23.92578125,-450.1953125
1731699276160.8438,-312.98828125,553.22265625,538.0859375,-70.3125,632.8125
1731699276164.75,-185.05859375,995.1171875,990.234375,-14.6484375,-466.30859375
1731699276168.6562,125,-635.25390625,-640.625,95.703125,-1000
1731699276172.5625,57.6171875,-1000,-1000,45.41015625,-644.04296875
1731699276176.4688,-267.578125,162.109375,150.87890625,-55.17578125,766.11328125
1731699276180.375,-263.671875,999.51171875,999.51171875,-36.62109375,187.01171875
1731699276184.2812,77.1484375,-340.33203125,-363.28125,70.3125,-1000
1731699276188.1875,150.87890625,-1000,-1000,60.546875,-895.01953125
1731699276192.0938,-166.9921875,-577.1484375,-582.03125,-42.96875,675.78125
1731699276196,-286.62109375,937.01171875,929.6875,-82.03125,879.39453125
1731699276199.9062,16.11328125,395.5078125,360.83984375,33.203125,-806.15234375
1731699276203.8125,225.5859375,-1000,-1000,84.47265625,-1000
1731699276207.7188,-42.48046875,-931.15234375,-926.26953125,-13.18359375,535.15625
1731699276211.625,-273.4375,670.8984375,673.828125,-71.77734375,999.0234375
1731699276215.5312,-79.58984375,966.796875,946.2890625,4.8828125,-615.234375
1731699276219.4375,181.15234375,-752.9296875,-775.390625,90.33203125,-1000
1731699276223.3438,36.62109375,-1000,-1000,32.71484375,53.22265625
1731699276227.25,-257.32421875,593.26171875,591.796875,-71.2890625,999.51171875
1731699276231.1562,-167.48046875,986.328125,984.375,-45.41015625,-103.515625
1731699276235.0625,164.55078125,-614.2578125,-621.58203125,50.29296875,-1000
1731699276238.9688,133.30078125,-1000,-1000,29.296875,-677.734375
1731699276242.875,-203.61328125,-66.89453125,-33.69140625,-66.40625,822.75390625
1731699276246.7812,-265.625,999.51171875,999.51171875,-78.61328125,449.70703125
1731699276250.6875,54.6875,-43.45703125,-84.9609375,39.0625,-1000
1731699276254.5938,199.21875,-1000,-1000,54.19921875,-901.85546875
1731699276258.5,-109.86328125,-740.234375,-730.46875,-75.68359375,712.890625
1731699276262.4062,-284.66796875,850.09765625,851.07421875,-119.62890625,993.1640625
1731699276266.3125,-29.296875,777.34375,761.23046875,4.8828125,-736.81640625
1731699276270.2188,210.44921875,-931.15234375,-940.91796875,55.17578125,-1000
1731699276274.125,-32.2265625,-1000,-997.55859375,-30.2734375,627.9296875
1731699276278.0312,-266.6015625,669.43359375,670.8984375,-108.3984375,889.6484375
1731699276281.9375,-119.140625,999.51171875,999.51171875,-52.24609375,-577.63671875
1731699276285.8438,188.96484375,-687.98828125,-687.01171875,43.45703125,-1000
1731699276289.75,86.42578125,-1000,-1000,0,257.32421875
1731699276293.6562,-250,547.8515625,545.41015625,-104.98046875,999.51171875
1731699276297.5625,-187.01171875,999.51171875,999.51171875,-89.84375,109.86328125
1731699276301.4688,160.64453125,-512.20703125,-522.94921875,41.50390625,-1000
1731699276305.375,155.2734375,-1000,-1000,32.71484375,-693.84765625
1731699276309.2812,-206.54296875,-33.69140625,-37.109375,-84.9609375,873.046875
1731699276313.1875,-274.90234375,999.51171875,999.51171875,-91.796875,811.5234375
1731699276317.0938,55.17578125,159.66796875,127.44140625,13.671875,-861.328125
1731699276321,190.91796875,-1000,-1000,41.50390625,-996.58203125
1731699276324.9062,-105.95703125,-757.8125,-750,-41.015625,695.3125
1731699276328.8125,-275.390625,859.86328125,860.83984375,-105.95703125,999.51171875
1731699276332.7188,-11.23046875,852.05078125,846.6796875,-5.859375,-678.7109375
1731699276336.625,204.1015625,-859.86328125,-864.74609375,74.21875,-1000
1731699276340.5312,-15.625,-1000,-1000,-14.16015625,475.5859375
1731699276344.4375,-276.85546875,675.29296875,674.8046875,-99.12109375,999.51171875
1731699276348.3438,-124.0234375,999.51171875,999.51171875,-38.57421875,-284.66796875
1731699276352.25,186.03515625,-687.5,-687.01171875,49.31640625,-1000
1731699276356.1562,85.9375,-1000,-1000,0.9765625,-132.8125
1731699276360.0625,-229.98046875,499.51171875,500.48828125,-86.9140625,999.51171875
1731699276363.9688,-197.75390625,999.51171875,999.51171875,-61.03515625,223.14453125
1731699276367.875,141.11328125,-354.00390625,-372.0703125,51.7578125,-1000
1731699276371.7812,171.38671875,-1000,-1000,45.41015625,-722.65625
1731699276375.6875,-176.26953125,-186.03515625,-172.8515625,-56.15234375,838.37890625
1731699276379.5938,-280.2734375,999.51171875,999.51171875,-89.84375,951.171875
1731699276383.5,44.43359375,416.015625,381.34765625,4.8828125,-734.375
1731699276387.4062,211.9140625,-1000,-1000,37.109375,-1000
1731699276391.3125,-81.54296875,-861.81640625,-854.00390625,-63.4765625,665.52734375
1731699276395.2188,-289.0625,778.3203125,782.2265625,-124.51171875,999.51171875
1731699276399.125,-41.9921875,959.9609375,950.1953125,-20.5078125,-634.765625
1731699276403.0312,232.91015625,-757.32421875,-767.578125,60.05859375,-1000
1731699276406.9375,38.57421875,-1000,-1000,-37.109375,423.828125
1731699276410.8438,-255.37109375,685.546875,682.6171875,-134.765625,999.51171875
1731699276414.75,-122.0703125,986.81640625,987.79296875,-70.80078125,-219.23828125
1731699276418.6562,200.68359375,-641.11328125,-642.578125,31.73828125,-1000
1731699276422.5625,129.39453125,-1000,-1000,-12.20703125,-107.421875
1731699276426.4688,-211.42578125,217.28515625,231.4453125,-131.8359375,999.51171875
1731699276430.375,-216.796875,999.51171875,999.51171875,-137.20703125,418.9453125
1731699276434.2812,124.51171875,-363.28125,-379.39453125,-4.39453125,-1000
1731699276438.1875,185.546875,-1000,-1000,2.9296875,-750
1731699276442.0938,-155.76171875,-631.34765625,-619.140625,-103.02734375,814.94140625
1731699276446,-287.59765625,906.73828125,907.71484375,-137.6953125,943.359375
1731699276449.9062,7.32421875,500,447.265625,-36.62109375,-732.91015625
1731699276453.8125,223.6328125,-1000,-1000,-1.46484375,-1000
1731699276457.7188,-41.9921875,-961.42578125,-952.1484375,-98.14453125,623.53515625
1731699276461.625,-264.6484375,689.94140625,690.91796875,-162.109375,999.51171875
1731699276465.5312,-47.36328125,875.9765625,864.74609375,-86.42578125,-537.109375
1731699276469.4375,211.9140625,-827.63671875,-838.37890625,0,-1000
1731699276473.3438,38.57421875,-1000,-1000,-76.66015625,260.25390625
1731699276477.25,-260.7421875,510.7421875,511.23046875,-166.9921875,999.51171875
1731699276481.1562,-149.90234375,979.4921875,979.4921875,-117.67578125,-0.9765625
1731699276485.0625,180.17578125,-608.88671875,-607.91015625,-3.90625,-1000
1731699276488.9688,120.1171875,-1000,-1000,-42.48046875,-476.07421875
1731699276492.875,-222.65625,-158.69140625,-149.90234375,-154.296875,984.86328125
1731699276496.7812,-270.5078125,999.51171875,998.046875,-135.25390625,796.875
1731699276500.6875,72.75390625,-195.3125,-240.234375,-6.8359375,-832.03125
1731699276504.5938,219.7265625,-1000,-1000,-4.39453125,-977.05078125
1731699276508.5,-116.69921875,-761.23046875,-750,-98.14453125,729.4921875
1731699276512.4062,-269.04296875,805.17578125,804.19921875,-118.1640625,998.046875
1731699276516.3125,28.80859375,520.5078125,475.5859375,-48.33984375,-701.66015625
1731699276520.2188,233.3984375,-1000,-1000,2.9296875,-1000
1731699276524.125,-34.1796875,-957.03125,-951.66015625,-57.6171875,596.6796875
1731699276528.0312,-307.12890625,661.62109375,662.109375,-125.48828125,999.51171875
1731699276531.9375,-107.421875,968.75,956.0546875,-51.26953125,-565.4296875
1731699276535.8438,203.61328125,-725.09765625,-746.09375,48.828125,-1000
1731699276539.75,54.6875,-1000,-1000,-20.5078125,68.84765625
1731699276543.6562,-279.78515625,490.234375,513.671875,-120.60546875,999.51171875
1731699276547.5625,-221.19140625,999.51171875,999.51171875,-72.75390625,270.01953125
1731699276551.4688,137.20703125,-536.1328125,-549.8046875,29.296875,-1000
1731699276555.375,143.06640625,-1000,-1000,13.671875,-652.83203125
1731699276559.2812,-219.23828125,-163.0859375,-126.46484375,-83.49609375,931.640625
1731699276563.1875,-275.390625,999.51171875,999.51171875,-106.93359375,820.3125
1731699276567.0938,70.80078125,43.45703125,9.765625,0.9765625,-852.5390625
1731699276571,204.1015625,-1000,-1000,37.59765625,-994.140625
1731699276574.9062,-112.79296875,-761.71875,-758.30078125,-70.3125,708.49609375
1731699276578.8125,-288.57421875,824.70703125,825.68359375,-139.16015625,998.53515625
1731699276582.7188,-36.1328125,865.72265625,855.95703125,-28.80859375,-692.3828125
1731699276586.625,207.51953125,-856.4453125,-864.74609375,23.4375,-1000
1731699276590.5312,-14.6484375,-1000,-1000,-64.453125,506.8359375
1731699276594.4375,-301.7578125,676.7578125,675.78125,-122.55859375,999.51171875
1731699276598.3438,-130.859375,999.51171875,999.51171875,-49.8046875,-379.39453125
1731699276602.25,197.265625,-676.26953125,-677.734375,47.36328125,-1000
1731699276606.1562,76.66015625,-1000,-1000,-8.7890625,-5.37109375
1731699276610.0625,-272.4609375,441.40625,450.1953125,-109.375,999.51171875
1731699276613.9688,-246.58203125,999.51171875,999.51171875,-84.9609375,479.98046875
1731699276617.875,124.0234375,-349.12109375,-355.95703125,29.296875,-991.2109375
1731699276621.7812,192.3828125,-1000,-1000,15.625,-800.78125
1731699276625.6875,-174.8046875,-257.32421875,-244.62890625,-86.9140625,840.33203125
1731699276629.5938,-290.0390625,999.51171875,999.51171875,-100.09765625,881.8359375
1731699276633.5,45.8984375,340.8203125,299.8046875,0.48828125,-806.15234375
1731699276637.4062,217.28515625,-1000,-1000,35.15625,-1000
1731699276641.3125,-99.12109375,-845.703125,-840.8203125,-47.36328125,663.57421875
1731699276645.2188,-312.98828125,785.15625,784.1796875,-122.0703125,999.51171875
1731699276649.125,-42.48046875,925.78125,914.55078125,-42.96875,-605.46875
1731699276653.0312,230.46875,-799.31640625,-812.01171875,47.36328125,-1000
1731699276656.9375,10.25390625,-1000,-1000,-31.25,429.19921875
1731699276660.8438,-291.9921875,681.640625,681.15234375,-112.79296875,999.51171875
1731699276664.75,-144.04296875,997.55859375,998.046875,-48.828125,-41.9921875
1731699276668.6562,198.73046875,-666.015625,-666.50390625,38.0859375,-1000
1731699276672.5625,119.140625,-1000,-1000,-14.6484375,-244.140625
1731699276676.4688,-240.234375,353.515625,361.81640625,-109.375,999.51171875
1731699276680.375,-252.9296875,999.51171875,999.51171875,-107.421875,514.6484375
1731699276684.2812,114.74609375,-223.14453125,-239.74609375,8.7890625,-1000
1731699276688.1875,210.9375,-1000,-1000,29.78515625,-858.88671875
1731699276692.0938,-158.69140625,-476.5625,-461.42578125,-71.77734375,798.33984375
1731699276696,-309.5703125,999.51171875,999.51171875,-122.55859375,946.77734375
1731699276699.9062,28.80859375,522.94921875,488.76953125,-33.203125,-754.39453125
1731699276703.8125,219.23828125,-1000,-1000,13.18359375,-1000
1731699276707.7188,-94.23828125,-937.5,-926.7578125,-62.01171875,640.625
1731699276711.625,-328.61328125,701.171875,708.984375,-129.8828125,999.51171875
1731699276715.5312,-83.49609375,979.4921875,969.23828125,-46.38671875,-584.47265625
1731699276719.4375,206.54296875,-746.09375,-756.8359375,46.875,-1000
1731699276723.3438,20.5078125,-1000,-1000,-11.23046875,354.4921875
1731699276727.25,-293.45703125,653.3203125,653.80859375,-115.72265625,999.51171875
1731699276731.1562,-166.015625,999.51171875,999.51171875,-78.61328125,-96.6796875
1731699276735.0625,182.6171875,-623.53515625,-627.44140625,44.43359375,-1000
1731699276738.9688,128.90625,-1000,-1000,14.16015625,-402.83203125
1731699276742.875,-238.28125,191.89453125,189.453125,-92.7734375,999.51171875
1731699276746.7812,-273.4375,999.51171875,999.51171875,-101.07421875,730.46875
1731699276750.6875,103.515625,-156.25,-174.8046875,6.34765625,-887.6953125
1731699276754.5938,218.26171875,-1000,-1000,36.62109375,-976.5625
1731699276758.5,-134.27734375,-614.2578125,-609.86328125,-57.12890625,716.30859375
1731699276762.4062,-307.12890625,937.01171875,937.5,-105.95703125,992.67578125
1731699276766.3125,-10.25390625,734.375,720.21484375,-1.953125,-701.171875
1731699276770.2188,230.95703125,-940.91796875,-949.21875,55.6640625,-1000
1731699276774.125,-40.52734375,-987.3046875,-983.3984375,-52.24609375,546.38671875
1731699276778.0312,-316.89453125,684.5703125,685.546875,-128.41796875,999.51171875
1731699276781.9375,-101.07421875,999.51171875,999.51171875,-29.296875,-516.11328125
1731699276785.8438,229.4921875,-703.61328125,-706.54296875,58.59375,-1000
1731699276789.75,71.77734375,-1000,-1000,-18.5546875,114.74609375
1731699276793.6562,-285.15625,603.02734375,607.421875,-104.4921875,999.51171875
1731699276797.5625,-216.796875,999.51171875,999.51171875,-57.12890625,442.87109375
1731699276801.4688,148.92578125,-529.296875,-531.25,41.50390625,-1000
1731699276805.375,146.484375,-1000,-1000,4.39453125,-675.29296875
1731699276809.2812,-231.4453125,98.6328125,100.5859375,-88.37890625,956.54296875
1731699276813.1875,-308.59375,999.51171875,999.51171875,-90.8203125,755.37109375
1731699276817.0938,61.03515625,208.49609375,178.7109375,11.71875,-881.34765625
1731699276821,205.56640625,-1000,-1000,42.48046875,-974.12109375
1731699276824.9062,-131.34765625,-662.59765625,-658.69140625,-42.96875,707.03125
1731699276828.8125,-328.125,930.6640625,929.6875,-90.33203125,999.51171875
1731699276832.7188,-37.109375,873.046875,867.1875,0.9765625,-689.453125
1731699276836.625,219.23828125,-812.01171875,-819.82421875,64.453125,-1000
1731699276840.5312,-38.0859375,-1000,-1000,-11.23046875,570.80078125
1731699276844.4375,-332.03125,687.98828125,690.91796875,-78.61328125,999.51171875
1731699276848.3438,-156.25,999.51171875,999.51171875,-13.18359375,-329.58984375
1731699276852.25,208.0078125,-689.94140625,-692.3828125,89.35546875,-1000
1731699276856.1562,99.609375,-1000,-1000,31.73828125,43.9453125
1731699276860.0625,-283.203125,581.54296875,580.078125,-77.1484375,999.51171875
1731699276863.9688,-240.234375,999.51171875,999.51171875,-47.36328125,376.46484375
1731699276867.875,143.5546875,-300.78125,-320.80078125,65.4296875,-1000
1731699276871.7812,172.36328125,-1000,-1000,41.015625,-768.06640625
1731699276875.6875,-199.21875,65.4296875,65.91796875,-61.5234375,890.625
1731699276879.5938,-305.6640625,999.51171875,999.51171875,-83.984375,822.265625
1731699276883.5,46.38671875,512.6953125,487.79296875,24.90234375,-861.328125
1731699276887.4062,211.42578125,-1000,-1000,68.359375,-850.5859375
1731699276891.3125,-101.07421875,-746.09375,-740.72265625,-29.296875,764.6484375
1731699276895.2188,-323.2421875,907.71484375,908.203125,-99.12109375,973.6328125
1731699276899.125,-57.12890625,948.73046875,940.4296875,-1.953125,-652.83203125
1731699276903.0312,219.23828125,-724.609375,-734.86328125,75.1953125,-1000
1731699276906.9375,4.39453125,-1000,-1000,-25.390625,360.3515625
1731699276910.8438,-296.875,674.31640625,676.7578125,-116.69921875,999.51171875
1731699276914.75,-139.16015625,999.51171875,999.51171875,-44.921875,-286.1328125
1731699276918.6562,211.9140625,-658.69140625,-664.55078125,55.6640625,-1000
1731699276922.5625,104.4921875,-1000,-1000,7.32421875,-210.44921875
1731699276926.4688,-270.01953125,491.69921875,492.1875,-92.7734375,999.51171875
1731699276930.375,-255.37109375,999.51171875,999.51171875,-78.61328125,531.25
1731699276934.2812,109.375,-79.1015625,-107.91015625,27.34375,-1000
1731699276938.1875,187.98828125,-1000,-1000,23.4375,-828.61328125
1731699276942.0938,-173.828125,-160.15625,-158.69140625,-69.3359375,814.94140625
1731699276946,-318.359375,999.51171875,999.51171875,-88.8671875,971.19140625
1731699276949.9062,16.11328125,650.87890625,642.08984375,23.4375,-711.42578125
1731699276953.8125,225.5859375,-951.171875,-956.54296875,66.40625,-1000
1731699276957.7188,-71.2890625,-851.5625,-848.6328125,-36.1328125,640.13671875
1731699276961.625,-324.70703125,838.37890625,839.84375,-113.28125,999.51171875
1731699276965.5312,-91.30859375,985.83984375,982.421875,-31.25,-606.4453125
1731699276969.4375,222.65625,-705.56640625,-709.47265625,51.26953125,-1000
1731699276973.3438,20.5078125,-1000,-1000,-21.484375,298.828125
1731699276977.25,-317.87109375,652.34375,654.296875,-101.5625,999.51171875
1731699276981.1562,-180.17578125,999.51171875,999.51171875,-25.87890625,-10.25390625
1731699276985.0625,187.01171875,-540.0390625,-553.22265625,81.54296875,-1000
1731699276988.9688,144.53125,-1000,-1000,15.625,-413.57421875
1731699276992.875,-241.2109375,414.0625,422.8515625,-78.61328125,999.51171875
1731699276996.7812,-282.71484375,999.51171875,999.51171875,-68.84765625,600.09765625
1731699277000.6875,120.60546875,160.15625,121.09375,39.55078125,-980.95703125
1731699277004.5938,232.91015625,-1000,-1000,69.3359375,-854.4921875
1731699277008.5,-144.04296875,-293.9453125,-250,-40.0390625,801.26953125
1731699277012.4062,-313.96484375,999.51171875,999.51171875,-98.14453125,959.9609375
1731699277016.3125,6.8359375,803.22265625,784.66796875,14.16015625,-736.328125
1731699277020.2188,239.2578125,-827.63671875,-840.8203125,84.47265625,-1000
1731699277024.125,-39.0625,-912.59765625,-906.25,-4.39453125,616.69921875
1731699277028.0312,-319.3359375,816.40625,818.359375,-107.91015625,999.51171875
1731699277031.9375,-98.6328125,992.1875,991.2109375,-20.01953125,-508.30078125
1731699277035.8438,238.28125,-710.44921875,-709.47265625,97.16796875,-1000
1731699277039.75,71.2890625,-1000,-1000,21.484375,450.68359375
1731699277043.6562,-274.4140625,635.25390625,638.18359375,-89.84375,999.51171875
1731699277047.5625,-186.5234375,999.51171875,999.51171875,-52.734375,142.08984375
1731699277051.4688,195.3125,-418.45703125,-434.5703125,68.359375,-1000
1731699277055.375,191.40625,-1000,-1000,36.62109375,-574.21875
1731699277059.2812,-194.82421875,298.33984375,302.24609375,-86.9140625,952.1484375
1731699277063.1875,-293.45703125,999.51171875,999.51171875,-94.23828125,860.3515625
1731699277067.0938,54.19921875,446.2890625,424.8046875,41.9921875,-803.7109375
1731699277071,231.4453125,-1000,-1000,54.19921875,-1000
1731699277074.9062,-112.79296875,-466.30859375,-437.98828125,-62.5,714.84375
1731699277078.8125,-317.3828125,999.51171875,999.51171875,-99.609375,999.51171875
1731699277082.7188,-5.37109375,856.93359375,848.6328125,-2.44140625,-690.4296875
1731699277086.625,258.30078125,-765.13671875,-769.04296875,48.828125,-1000
1731699277090.5312,-11.71875,-1000,-1000,-27.83203125,537.109375
1731699277094.4375,-319.3359375,719.7265625,723.6328125,-104.00390625,999.51171875
1731699277098.3438,-129.39453125,999.51171875,999.51171875,-51.7578125,-354.4921875
1731699277102.25,210.9375,-705.56640625,-708.984375,43.45703125,-1000
1731699277106.1562,86.42578125,-1000,-1000,-8.30078125,3.41796875
1731699277110.0625,-271.484375,593.75,595.21484375,-112.3046875,999.51171875
1731699277113.9688,-238.76953125,999.51171875,999.51171875,-81.0546875,304.6875
1731699277117.875,160.15625,-292.96875,-312.98828125,40.0390625,-1000
1731699277121.7812,210.9375,-1000,-1000,25.390625,-705.078125
1731699277125.6875,-189.94140625,98.14453125,115.234375,-83.0078125,883.30078125
1731699277129.5938,-294.921875,999.51171875,999.51171875,-100.09765625,919.921875
1731699277133.5,80.078125,515.13671875,487.3046875,3.41796875,-759.765625
1731699277137.4062,257.8125,-1000,-1000,40.0390625,-1000
1731699277141.3125,-78.61328125,-724.12109375,-714.35546875,-58.10546875,669.921875
1731699277145.2188,-317.87109375,919.921875,921.38671875,-118.1640625,999.51171875
1731699277149.125,-66.89453125,957.03125,953.125,5.37109375,-624.51171875
1731699277153.0312,249.51171875,-707.51953125,-711.42578125,83.984375,-1000
1731699277156.9375,27.34375,-1000,-1000,-14.6484375,483.3984375
1731699277160.8438,-295.8984375,677.734375,680.6640625,-99.609375,999.51171875
1731699277164.75,-132.32421875,999.51171875,999.51171875,-47.8515625,-256.8359375
1731699277168.6562,216.30859375,-655.76171875,-662.109375,58.10546875,-1000
1731699277172.5625,116.69921875,-1000,-1000,26.85546875,-46.38671875
1731699277176.4688,-273.92578125,504.8828125,516.6015625,-90.33203125,999.51171875
1731699277180.375,-262.6953125,999.51171875,999.51171875,-96.19140625,475.09765625
1731699277184.2812,140.13671875,-131.8359375,-161.1328125,25.390625,-999.0234375
1731699277188.1875,213.37890625,-1000,-1000,41.015625,-670.8984375
1731699277192.0938,-148.4375,-132.32421875,-126.953125,-70.3125,876.953125
1731699277196,-304.6875,999.51171875,999.51171875,-100.5859375,906.25
1731699277199.9062,13.671875,696.77734375,677.734375,34.66796875,-754.8828125
1731699277203.8125,249.0234375,-912.59765625,-924.31640625,62.01171875,-1000
1731699277207.7188,-56.15234375,-878.41796875,-877.44140625,-47.36328125,655.76171875
1731699277211.625,-310.05859375,829.58984375,826.171875,-123.53515625,999.51171875
1731699277215.5312,-58.59375,982.421875,980.46875,-32.71484375,-568.359375
1731699277219.4375,240.72265625,-713.37890625,-716.796875,76.171875,-1000
1731699277223.3438,47.8515625,-1000,-1000,-18.5546875,269.04296875
1731699277227.25,-298.828125,666.50390625,668.45703125,-123.046875,999.51171875
1731699277231.1562,-179.19921875,999.51171875,999.51171875,-67.87109375,-41.015625
1731699277235.0625,195.3125,-591.30859375,-599.609375,56.640625,-1000
1731699277238.9688,157.71484375,-1000,-1000,8.7890625,-491.69921875
1731699277242.875,-229.98046875,356.93359375,354.4921875,-116.69921875,969.7265625
1731699277246.7812,-265.13671875,999.51171875,999.51171875,-87.890625,749.51171875
1731699277250.6875,132.8125,11.23046875,-12.20703125,34.1796875,-880.37109375
1731699277254.5938,234.86328125,-1000,-1000,28.80859375,-939.453125
1731699277258.5,-130.859375,-395.5078125,-393.06640625,-84.9609375,749.51171875
1731699277262.4062,-319.82421875,999.51171875,999.51171875,-126.953125,999.51171875
1731699277266.3125,-20.99609375,800.78125,792.48046875,1.953125,-703.125
1731699277270.2188,255.37109375,-845.703125,-854.00390625,63.96484375,-1000
1731699277274.125,-18.06640625,-961.9140625,-959.9609375,-47.36328125,639.6484375
1731699277278.0312,-308.59375,753.41796875,751.953125,-125,999.51171875
1731699277281.9375,-102.5390625,999.51171875,999.51171875,-32.2265625,-533.69140625
1731699277285.8438,250,-709.9609375,-709.9609375,58.10546875,-1000
1731699277289.75,90.8203125,-1000,-1000,-11.23046875,197.265625
1731699277293.6562,-297.36328125,645.99609375,648.4375,-114.2578125,999.51171875
1731699277297.5625,-204.1015625,999.51171875,999.51171875,-75.68359375,16.11328125
1731699277301.4688,197.75390625,-480.95703125,-492.67578125,60.546875,-1000
1731699277305.375,174.31640625,-1000,-1000,35.64453125,-494.140625
1731699277309.2812,-218.75,223.6328125,226.5625,-97.16796875,989.2578125
1731699277313.1875,-283.203125,999.51171875,999.51171875,-112.79296875,803.7109375
1731699277317.0938,95.21484375,227.5390625,208.0078125,7.8125,-842.7734375
1731699277321,242.67578125,-1000,-1000,30.2734375,-984.375
1731699277324.9062,-122.55859375,-627.44140625,-605.46875,-63.96484375,721.19140625
1731699277328.8125,-318.359375,960.44921875,970.703125,-125.9765625,999.51171875
1731699277332.7188,-10.7421875,853.515625,841.30859375,-21.484375,-712.890625
1731699277336.625,242.67578125,-820.80078125,-829.58984375,60.546875,-1000
1731699277340.5312,-17.08984375,-1000,-1000,-41.50390625,608.88671875
1731699277344.4375,-315.91796875,693.84765625,693.359375,-140.625,999.51171875
1731699277348.3438,-114.2578125,999.51171875,999.51171875,-60.05859375,-420.8984375
1731699277352.25,242.1875,-702.63671875,-702.63671875,63.96484375,-1000
1731699277356.1562,110.3515625,-1000,-1000,5.859375,-19.04296875
1731699277360.0625,-273.92578125,577.63671875,582.03125,-120.1171875,999.51171875
1731699277363.9688,-233.88671875,999.51171875,999.51171875,-88.8671875,390.625
1731699277367.875,166.9921875,-379.8828125,-391.6015625,40.52734375,-1000
1731699277371.7812,196.77734375,-1000,-1000,21.97265625,-760.25390625
1731699277375.6875,-187.01171875,13.18359375,14.6484375,-106.4453125,863.76953125
1731699277379.5938,-306.640625,999.51171875,999.51171875,-135.7421875,898.4375
1731699277383.5,41.015625,497.55859375,472.16796875,8.30078125,-786.62109375
1731699277387.4062,240.234375,-1000,-1000,47.36328125,-1000
1731699277391.3125,-93.75,-781.73828125,-771.484375,-68.359375,659.1796875
1731699277395.2188,-329.58984375,881.34765625,883.30078125,-120.1171875,999.51171875
1731699277399.125,-64.453125,951.171875,944.82421875,2.44140625,-573.2421875
1731699277403.0312,262.20703125,-732.91015625,-739.2578125,83.49609375,-1000
1731699277406.9375,43.45703125,-1000,-1000,-30.76171875,463.8671875
1731699277410.8438,-318.359375,681.640625,681.15234375,-129.8828125,999.51171875
1731699277414.75,-145.01953125,999.51171875,999.51171875,-44.43359375,-86.9140625
1731699277418.6562,251.953125,-681.640625,-681.640625,64.453125,-1000
1731699277422.5625,152.34375,-1000,-1000,8.7890625,-177.734375
1731699277426.4688,-266.11328125,461.42578125,464.84375,-110.3515625,999.51171875
1731699277430.375,-263.18359375,999.51171875,999.51171875,-97.65625,410.64453125
1731699277434.2812,160.15625,-310.546875,-325.68359375,52.24609375,-1000
1731699277438.1875,254.8828125,-1000,-1000,52.24609375,-852.05078125
1731699277442.0938,-171.875,-384.765625,-365.72265625,-81.54296875,790.0390625
1731699277446,-327.63671875,999.51171875,999.51171875,-123.046875,937.5
1731699277449.9062,79.1015625,252.9296875,219.7265625,1.46484375,-781.25
1731699277453.8125,292.48046875,-1000,-1000,50.78125,-1000
1731699277457.7188,-64.94140625,-905.76171875,-895.01953125,-68.84765625,677.24609375
1731699277461.625,-327.63671875,685.546875,697.265625,-141.11328125,999.51171875
1731699277465.5312,-70.80078125,944.82421875,921.38671875,-33.203125,-571.77734375
1731699277469.4375,251.953125,-791.50390625,-812.98828125,75.1953125,-1000
1731699277473.3438,38.0859375,-1000,-1000,-13.671875,423.33984375
1731699277477.25,-347.65625,639.16015625,639.16015625,-142.08984375,999.51171875
1731699277481.1562,-245.60546875,999.51171875,999.51171875,-62.01171875,-76.66015625
1731699277485.0625,195.3125,-634.27734375,-639.16015625,73.2421875,-1000
1731699277488.9688,164.55078125,-1000,-1000,10.25390625,-232.91015625
1731699277492.875,-282.71484375,235.3515625,244.140625,-124.51171875,999.51171875
1731699277496.7812,-311.5234375,999.51171875,999.51171875,-118.1640625,718.75
1731699277500.6875,114.74609375,-196.77734375,-208.984375,31.73828125,-895.5078125
1731699277504.5938,219.7265625,-1000,-1000,39.0625,-844.7265625
1731699277508.5,-188.4765625,-469.7265625,-464.84375,-104.98046875,839.35546875
1731699277512.4062,-361.81640625,999.51171875,999.51171875,-152.83203125,962.890625
1731699277516.3125,7.32421875,717.7734375,708.49609375,-8.7890625,-714.35546875
1731699277520.2188,272.94921875,-942.3828125,-948.73046875,72.265625,-1000