time,TP9,AF7,AF8,TP10,AUX
1731718770027,-586.42578125,-478.02734375,-784.1796875,-645.99609375,-806.640625
1731718770030.9062,-2.9296875,-468.26171875,-884.765625,-556.15234375,-55.6640625
1731718770034.8125,312.01171875,-433.10546875,-1000,-993.1640625,599.609375
1731718770038.7188,-476.5625,-427.734375,-992.1875,-1000,-51.26953125
1731718770042.625,-741.2109375,-443.359375,-813.96484375,-733.3984375,-597.16796875
1731718770046.5312,203.61328125,-454.1015625,-694.82421875,174.31640625,202.1484375
1731718770050.4375,895.01953125,-431.640625,-813.96484375,-702.1484375,916.50390625
1731718770054.3438,483.88671875,-419.43359375,-972.65625,-1000,216.796875
1731718770058.25,-417.48046875,-418.9453125,-858.88671875,-790.0390625,-660.15625
1731718770062.1562,-327.63671875,-432.6171875,-660.64453125,269.53125,-83.0078125
1731718770066.0625,384.765625,-483.88671875,-893.5546875,-511.23046875,593.75
1731718770069.9688,155.76171875,-509.27734375,-1000,-1000,166.50390625
1731718770073.875,36.1328125,-483.88671875,-808.10546875,-926.7578125,-120.1171875
1731718770077.7812,362.3046875,-470.21484375,-507.8125,264.16015625,153.80859375
1731718770081.6875,474.12109375,-457.51953125,-794.921875,-275.390625,529.296875
1731718770085.5938,86.42578125,-457.51953125,-1000,-1000,223.6328125
1731718770089.5,-422.36328125,-459.47265625,-954.58984375,-1000,-292.96875
1731718770093.4062,184.5703125,-430.6640625,-489.74609375,-71.2890625,304.19921875
1731718770097.3125,996.09375,-436.5234375,-446.77734375,577.63671875,999.51171875
1731718770101.2188,517.08984375,-452.63671875,-985.83984375,-764.6484375,369.62890625
1731718770105.125,-6.8359375,-458.0078125,-1000,-1000,-230.46875
1731718770109.0312,192.3828125,-451.171875,-615.234375,-767.578125,155.2734375
1731718770112.9375,72.265625,-482.91015625,-687.98828125,733.88671875,127.9296875
1731718770116.8438,-130.37109375,-541.50390625,-1000,200.68359375,2.44140625
1731718770120.75,31.73828125,-494.140625,-1000,-1000,117.67578125
1731718770124.6562,648.4375,-449.21875,-577.63671875,-903.80859375,512.6953125
1731718770128.5625,709.47265625,-459.47265625,-415.52734375,654.296875,388.671875
1731718770132.4688,327.1484375,-492.67578125,-878.90625,964.35546875,385.7421875
1731718770136.375,270.01953125,-478.02734375,-992.1875,-777.83203125,414.55078125
1731718770140.2812,669.43359375,-405.76171875,-561.03515625,-1000,614.74609375
1731718770144.1875,559.08203125,-442.3828125,-353.02734375,649.4140625,425.29296875
1731718770148.0938,88.8671875,-469.7265625,-793.9453125,999.0234375,140.625
1731718770152,134.27734375,-500,-1000,-667.96875,444.3359375
1731718770155.9062,598.14453125,-502.9296875,-705.078125,-1000,650.390625
1731718770159.8125,-43.9453125,-502.9296875,-621.09375,291.9921875,-345.21484375
1731718770163.7188,-66.89453125,-541.015625,-812.98828125,999.51171875,-332.51953125
1731718770167.625,651.3671875,-501.46484375,-958.49609375,153.80859375,562.01171875
1731718770171.5312,375,-466.796875,-913.0859375,-1000,176.26953125
1731718770175.4375,-205.078125,-461.9140625,-684.5703125,-140.625,-581.0546875
1731718770179.3438,-91.30859375,-497.0703125,-667.96875,999.51171875,-265.13671875
1731718770183.25,626.953125,-517.08984375,-937.01171875,806.640625,654.296875
1731718770187.1562,665.52734375,-472.65625,-875,-785.15625,729.98046875
1731718770191.0625,104.00390625,-466.796875,-581.0546875,-801.26953125,125.9765625
1731718770194.9688,235.3515625,-492.1875,-415.0390625,875,257.32421875
1731718770198.875,719.7265625,-500.48828125,-708.49609375,970.21484375,805.17578125
1731718770202.7812,339.84375,-524.4140625,-1000,-704.58984375,375.48828125
1731718770206.6875,-306.640625,-537.59765625,-927.24609375,-1000,-503.90625
1731718770210.5938,-273.92578125,-538.0859375,-633.7890625,611.81640625,-457.03125
1731718770214.5,728.515625,-487.3046875,-509.27734375,999.51171875,746.58203125
1731718770218.4062,896.97265625,-452.1484375,-701.171875,-285.15625,850.09765625
1731718770222.3125,-5.37109375,-471.19140625,-874.0234375,-1000,-285.15625
1731718770226.2188,-17.578125,-460.9375,-525.390625,359.86328125,-328.61328125
1731718770230.125,616.2109375,-482.421875,-482.421875,999.51171875,600.09765625
1731718770234.0312,676.26953125,-506.34765625,-915.52734375,249.51171875,853.515625
1731718770237.9375,268.5546875,-490.234375,-902.34375,-1000,351.5625
1731718770241.8438,112.3046875,-469.7265625,-560.546875,-456.0546875,-27.34375
1731718770245.75,766.11328125,-464.35546875,-288.0859375,999.51171875,736.328125
1731718770249.6562,646.484375,-492.1875,-774.90234375,890.13671875,672.36328125
1731718770253.5625,2.9296875,-507.32421875,-1000,-762.6953125,-219.23828125
1731718770257.4688,127.9296875,-485.83984375,-748.53515625,-938.96484375,-281.73828125
1731718770261.375,347.65625,-499.0234375,-486.328125,807.12890625,90.8203125
1731718770265.2812,165.52734375,-510.7421875,-875,988.28125,56.15234375
1731718770269.1875,175.29296875,-485.83984375,-1000,-691.89453125,-5.859375
1731718770273.0938,-86.9140625,-468.75,-840.33203125,-1000,-89.35546875
1731718770277,-591.30859375,-470.703125,-619.140625,559.08203125,-322.265625
1731718770280.9062,-127.44140625,-487.3046875,-773.92578125,999.51171875,282.2265625
1731718770284.8125,303.7109375,-496.58203125,-1000,-425.78125,770.99609375
1731718770288.7188,567.3828125,-460.44921875,-727.5390625,-1000,855.95703125
1731718770292.625,516.6015625,-470.21484375,-389.16015625,-5.859375,415.52734375
1731718770296.5312,-69.3359375,-525.390625,-695.80078125,999.51171875,-291.9921875
1731718770300.4375,385.7421875,-520.99609375,-988.28125,442.3828125,187.5
1731718770304.3438,809.5703125,-483.3984375,-842.28515625,-1000,609.86328125
1731718770308.25,3.41796875,-462.40234375,-669.921875,-805.17578125,-300.78125
1731718770312.1562,-254.8828125,-504.39453125,-687.98828125,869.140625,-643.06640625
1731718770316.0625,491.69921875,-504.39453125,-916.9921875,886.71875,206.0546875
1731718770319.9688,635.25390625,-464.84375,-920.41015625,-818.359375,618.1640625
1731718770323.875,-129.39453125,-468.26171875,-828.125,-1000,-337.40234375
1731718770327.7812,34.1796875,-456.0546875,-585.44921875,680.17578125,-291.50390625
1731718770331.6875,709.47265625,-458.49609375,-731.93359375,996.09375,659.1796875
1731718770335.5938,952.1484375,-435.546875,-766.6015625,-664.0625,931.15234375
1731718770339.5,333.984375,-451.66015625,-721.6796875,-1000,-95.21484375
1731718770343.4062,-333.49609375,-506.34765625,-701.66015625,364.2578125,-838.37890625
1731718770347.3125,90.8203125,-516.11328125,-769.04296875,999.51171875,0
1731718770351.2188,345.21484375,-519.04296875,-989.2578125,-309.5703125,441.89453125
1731718770355.125,-191.40625,-497.0703125,-1000,-1000,-316.89453125
1731718770359.0312,-394.53125,-482.421875,-737.79296875,-511.23046875,-656.25
1731718770362.9375,399.4140625,-483.3984375,-528.3203125,985.3515625,359.86328125
1731718770366.8438,574.70703125,-485.83984375,-882.8125,425.78125,657.2265625
1731718770370.75,-107.91015625,-485.83984375,-1000,-1000,-166.015625
1731718770374.6562,-276.3671875,-448.2421875,-701.66015625,-923.828125,-189.453125
1731718770378.5625,492.67578125,-442.87109375,-394.04296875,694.82421875,607.91015625
1731718770382.4688,602.5390625,-483.88671875,-821.2890625,960.9375,628.41796875
1731718770386.375,-29.296875,-484.86328125,-1000,-767.578125,-55.17578125
1731718770390.2812,-270.01953125,-482.421875,-923.828125,-1000,-519.04296875
1731718770394.1875,426.26953125,-465.33203125,-417.48046875,645.5078125,415.52734375
1731718770398.0938,620.60546875,-478.515625,-593.75,980.95703125,802.24609375
1731718770402,-174.31640625,-521.97265625,-1000,-629.39453125,41.015625
1731718770405.9062,-285.64453125,-481.4453125,-957.03125,-1000,-300.29296875
1731718770409.8125,-19.53125,-463.37890625,-618.65234375,51.7578125,-297.8515625
1731718770413.7188,85.44921875,-472.65625,-738.28125,999.51171875,-150.87890625
1731718770417.625,359.86328125,-463.8671875,-1000,-198.73046875,178.22265625
1731718770421.5312,683.59375,-438.96484375,-858.88671875,-1000,416.015625
1731718770425.4375,549.31640625,-418.45703125,-450.68359375,-620.1171875,491.2109375
1731718770429.3438,138.671875,-464.84375,-473.14453125,931.15234375,401.3671875
1731718770433.25,83.0078125,-495.1171875,-964.35546875,678.7109375,146.484375
1731718770437.1562,481.4453125,-462.40234375,-992.67578125,-984.375,266.6015625
1731718770441.0625,887.6953125,-430.6640625,-413.0859375,-967.7734375,859.375
1731718770444.9688,183.10546875,-470.21484375,-372.55859375,687.98828125,274.90234375
1731718770448.875,-185.546875,-511.71875,-925.78125,999.51171875,-86.9140625
1731718770452.7812,194.82421875,-499.51171875,-1000,-702.63671875,349.12109375
1731718770456.6875,-287.59765625,-486.328125,-851.07421875,-1000,-187.01171875
1731718770460.5938,-681.15234375,-489.2578125,-648.4375,578.125,-697.75390625
1731718770464.5,-216.796875,-490.234375,-846.6796875,999.51171875,-133.7890625
1731718770468.4062,705.56640625,-456.0546875,-940.91796875,-464.84375,760.7421875
1731718770472.3125,775.390625,-423.828125,-720.21484375,-1000,491.2109375
1731718770476.2188,180.17578125,-435.546875,-502.44140625,135.7421875,-158.69140625
1731718770480.125,460.44921875,-466.30859375,-591.30859375,999.51171875,227.05078125
1731718770484.0312,974.12109375,-456.0546875,-785.15625,432.12890625,928.7109375
1731718770487.9375,689.453125,-431.640625,-678.22265625,-1000,602.5390625
1731718770491.8438,-257.8125,-466.796875,-684.08203125,-681.640625,-665.52734375
1731718770495.75,-177.24609375,-500.9765625,-644.04296875,949.21875,-485.83984375
1731718770499.6562,298.828125,-503.90625,-866.2109375,901.3671875,481.4453125
1731718770503.5625,-123.046875,-501.46484375,-1000,-769.53125,82.03125
1731718770507.4688,-522.4609375,-481.93359375,-849.609375,-1000,-687.01171875
1731718770511.375,-135.25390625,-473.14453125,-532.71484375,692.3828125,-425.29296875
1731718770515.2812,667.96875,-474.609375,-732.91015625,999.51171875,612.79296875
1731718770519.1875,936.5234375,-454.1015625,-917.96875,-680.17578125,785.15625
1731718770523.0938,174.8046875,-451.66015625,-743.65234375,-1000,-99.609375
1731718770527,-279.78515625,-466.796875,-512.20703125,559.5703125,-323.2421875
1731718770530.9062,346.6796875,-479.00390625,-641.11328125,999.51171875,423.828125
1731718770534.8125,600.09765625,-505.859375,-962.890625,-229.00390625,626.953125
1731718770538.7188,-135.25390625,-500.48828125,-939.94140625,-1000,-127.9296875
1731718770542.625,-180.17578125,-486.328125,-552.734375,130.859375,-215.33203125
1731718770546.5312,863.28125,-469.23828125,-254.8828125,999.51171875,865.72265625
1731718770550.4375,496.09375,-482.421875,-798.828125,696.2890625,649.90234375
1731718770554.3438,-264.16015625,-493.1640625,-1000,-896.484375,-141.6015625
1731718770558.25,-182.12890625,-455.078125,-572.265625,-604.00390625,-191.40625
1731718770562.1562,306.15234375,-463.37890625,-358.3984375,999.51171875,331.54296875
1731718770566.0625,702.63671875,-479.00390625,-769.04296875,931.15234375,712.890625
1731718770569.9688,401.85546875,-468.75,-967.7734375,-689.453125,290.0390625
1731718770573.875,278.3203125,-455.56640625,-641.6015625,-1000,214.35546875
1731718770577.7812,-119.62890625,-478.515625,-510.25390625,644.53125,-100.5859375
1731718770581.6875,-108.3984375,-512.20703125,-885.25390625,999.51171875,-180.17578125
1731718770585.5938,253.41796875,-505.37109375,-1000,-518.5546875,166.015625
1731718770589.5,805.17578125,-453.125,-625,-1000,736.81640625
1731718770593.4062,572.75390625,-453.61328125,-244.140625,562.01171875,590.8203125
1731718770597.3125,-68.84765625,-497.55859375,-646.484375,999.51171875,-37.109375
1731718770601.2188,401.3671875,-496.09375,-991.2109375,374.0234375,300.78125
1731718770605.125,690.91796875,-449.21875,-742.1875,-984.86328125,512.20703125
1731718770609.0312,221.19140625,-440.4296875,-445.80078125,86.42578125,30.76171875
1731718770612.9375,296.38671875,-471.6796875,-492.67578125,999.51171875,212.40234375
1731718770616.8438,785.64453125,-473.6328125,-852.05078125,820.80078125,697.75390625
1731718770620.75,596.19140625,-456.0546875,-892.08984375,-741.2109375,309.08203125
1731718770624.6562,-19.04296875,-459.47265625,-712.40234375,-771.484375,-628.41796875
1731718770628.5625,50.78125,-485.3515625,-593.75,940.4296875,-615.234375
1731718770632.4688,525.390625,-501.46484375,-825.1953125,999.51171875,337.40234375
1731718770636.375,634.765625,-486.328125,-878.90625,-616.69921875,560.05859375
1731718770640.2812,243.1640625,-479.98046875,-696.2890625,-756.34765625,-224.609375
1731718770644.1875,96.19140625,-497.55859375,-551.7578125,727.5390625,-557.12890625
1731718770648.0938,684.08203125,-490.234375,-650.87890625,999.51171875,400.390625
1731718770652,999.51171875,-453.125,-618.65234375,28.80859375,999.51171875
1731718770655.9062,581.0546875,-460.44921875,-588.37890625,-850.09765625,311.5234375
1731718770659.8125,117.67578125,-475.5859375,-441.89453125,536.62109375,-107.91015625
1731718770663.7188,693.84765625,-471.6796875,-396.97265625,999.51171875,634.765625
1731718770667.625,824.70703125,-457.51953125,-723.14453125,563.96484375,772.4609375
1731718770671.5312,-90.33203125,-480.46875,-951.171875,-666.9921875,-382.8125
1731718770675.4375,-364.2578125,-474.609375,-683.10546875,355.95703125,-773.4375
1731718770679.3438,-13.671875,-500,-509.765625,999.51171875,-54.19921875
1731718770683.25,116.2109375,-530.2734375,-902.83203125,715.8203125,200.68359375
1731718770687.1562,-280.2734375,-526.3671875,-1000,-460.9375,-185.05859375
1731718770691.0625,-415.0390625,-501.46484375,-750.9765625,407.2265625,-439.94140625
1731718770694.9688,163.57421875,-500.48828125,-463.37890625,999.51171875,-194.3359375
1731718770698.875,293.45703125,-520.5078125,-851.5625,903.80859375,122.55859375
1731718770702.7812,338.8671875,-506.34765625,-994.62890625,-181.640625,384.27734375
1731718770706.6875,464.84375,-470.21484375,-613.76953125,315.91796875,324.21875
1731718770710.5938,703.125,-458.49609375,-194.3359375,999.51171875,591.796875
1731718770714.5,239.2578125,-494.140625,-564.94140625,999.51171875,415.52734375
1731718770718.4062,-278.3203125,-518.5546875,-1000,484.86328125,-18.5546875
1731718770722.3125,45.41015625,-488.28125,-794.921875,256.8359375,43.9453125
1731718770726.2188,768.5546875,-449.21875,-154.78515625,964.84375,749.0234375
1731718770730.125,179.19921875,-505.37109375,-426.26953125,999.51171875,340.33203125
1731718770734.0312,-168.45703125,-541.9921875,-1000,715.33203125,-45.41015625
1731718770737.9375,348.14453125,-503.41796875,-863.28125,13.18359375,307.6171875
1731718770741.8438,-233.88671875,-495.1171875,-584.47265625,772.4609375,-104.00390625
1731718770745.75,-445.3125,-523.4375,-561.5234375,999.51171875,-426.26953125
1731718770749.6562,541.50390625,-521.97265625,-841.30859375,818.84765625,391.6015625
1731718770753.5625,999.51171875,-475.09765625,-693.84765625,103.02734375,997.0703125
1731718770757.4688,505.37109375,-449.21875,-360.3515625,696.77734375,456.54296875
1731718770761.375,-456.0546875,-503.90625,-460.9375,999.51171875,-516.11328125
1731718770765.2812,1.953125,-524.4140625,-778.3203125,963.8671875,37.109375
1731718770769.1875,822.265625,-485.83984375,-779.78515625,630.859375,801.7578125
1731718770773.0938,159.66796875,-484.375,-718.26171875,676.7578125,-134.27734375
1731718770777,-536.62109375,-527.83203125,-619.140625,999.51171875,-820.80078125
1731718770780.9062,101.07421875,-520.5078125,-650.87890625,999.51171875,-99.12109375
1731718770784.8125,675.29296875,-490.234375,-831.54296875,718.75,651.3671875
1731718770788.7188,-39.0625,-548.33984375,-909.66796875,468.26171875,-145.99609375
1731718770792.625,-405.2734375,-543.45703125,-650.87890625,906.73828125,-753.90625
1731718770796.5312,113.28125,-480.95703125,-464.35546875,999.51171875,208.984375
1731718770800.4375,643.06640625,-535.15625,-758.30078125,753.90625,941.89453125
1731718770804.3438,70.80078125,-508.7890625,-883.30078125,-353.515625,195.3125
1731718770808.25,-637.20703125,-458.984375,-700.68359375,531.25,-668.45703125
1731718770812.1562,-118.1640625,-539.0625,-511.71875,999.51171875,-227.5390625
1731718770816.0625,770.99609375,-534.1796875,-631.8359375,855.95703125,787.59765625
1731718770819.9688,180.6640625,-495.60546875,-910.64453125,-171.875,276.85546875
1731718770823.875,-180.17578125,-479.00390625,-686.03515625,439.94140625,-312.01171875
1731718770827.7812,418.9453125,-482.91015625,-299.8046875,999.51171875,160.15625
1731718770831.6875,582.51953125,-516.11328125,-649.90234375,999.51171875,474.609375
1731718770835.5938,211.9140625,-538.57421875,-1000,208.49609375,132.8125
1731718770839.5,-201.171875,-562.5,-952.1484375,143.06640625,-449.21875
1731718770843.4062,214.35546875,-520.5078125,-418.9453125,984.86328125,184.08203125
1731718770847.3125,923.33984375,-460.9375,-333.49609375,999.51171875,999.51171875
1731718770851.2188,325.1953125,-502.44140625,-947.75390625,576.66015625,420.41015625
1731718770855.125,-275.390625,-498.53515625,-1000,-581.0546875,-310.05859375
1731718770859.0312,367.67578125,-447.75390625,-460.44921875,515.625,323.73046875
1731718770862.9375,446.77734375,-494.140625,-473.14453125,999.51171875,352.5390625
1731718770866.8438,15.625,-536.1328125,-997.55859375,713.37890625,-53.22265625
1731718770870.75,65.4296875,-493.65234375,-979.00390625,-442.87109375,32.2265625
1731718770874.6562,67.3828125,-453.125,-610.3515625,413.57421875,-141.11328125
1731718770878.5625,72.265625,-500,-485.83984375,999.51171875,-275.87890625
1731718770882.4688,609.86328125,-515.625,-804.6875,825.1953125,298.828125
1731718770886.375,702.1484375,-496.58203125,-927.24609375,-249.0234375,478.02734375
1731718770890.2812,313.96484375,-491.69921875,-584.9609375,373.046875,512.6953125
1731718770894.1875,-93.26171875,-482.421875,-307.6171875,999.51171875,347.65625
1731718770898.0938,-311.03515625,-516.6015625,-713.8671875,999.51171875,156.73828125
1731718770902,169.43359375,-501.46484375,-989.2578125,-10.25390625,428.22265625
1731718770905.9062,810.546875,-448.2421875,-558.10546875,-737.3046875,828.61328125
1731718770909.8125,135.7421875,-468.26171875,-445.3125,641.6015625,-84.9609375
1731718770913.7188,-198.73046875,-487.3046875,-761.71875,999.51171875,-385.7421875
1731718770917.625,242.67578125,-488.76953125,-950.1953125,685.05859375,525.87890625
1731718770921.5312,86.9140625,-473.14453125,-862.3046875,-844.23828125,228.515625
1731718770925.4375,-702.63671875,-495.60546875,-706.54296875,-228.02734375,-642.08984375
1731718770929.3438,-586.42578125,-548.828125,-705.56640625,999.51171875,-440.91796875
1731718770933.25,607.91015625,-521.484375,-894.53125,880.859375,569.82421875
1731718770937.1562,760.25390625,-471.6796875,-810.05859375,-698.73046875,778.80859375
1731718770941.0625,53.7109375,-438.4765625,-553.22265625,-900.390625,55.6640625
1731718770944.9688,280.2734375,-462.40234375,-350.5859375,839.35546875,171.875
1731718770948.875,796.875,-503.41796875,-652.34375,999.51171875,777.83203125
1731718770952.7812,440.4296875,-517.578125,-993.1640625,-640.13671875,323.73046875
1731718770956.6875,-157.71484375,-505.37109375,-882.32421875,-1000,-589.84375
1731718770960.5938,-140.625,-462.890625,-541.50390625,591.796875,-564.453125
1731718770964.5,680.17578125,-430.17578125,-488.28125,999.51171875,643.06640625
1731718770968.4062,689.94140625,-464.35546875,-889.6484375,-86.9140625,597.65625
1731718770972.3125,-121.09375,-517.08984375,-1000,-1000,-484.86328125
1731718770976.2188,-132.32421875,-524.4140625,-646.484375,288.0859375,-548.33984375
1731718770980.125,768.5546875,-492.1875,-418.9453125,999.51171875,628.41796875
1731718770984.0312,866.2109375,-477.5390625,-758.30078125,706.0546875,999.51171875
1731718770987.9375,332.51953125,-459.47265625,-821.77734375,-851.07421875,375
1731718770991.8438,195.3125,-447.265625,-489.2578125,-450.68359375,-82.03125
1731718770995.75,750.9765625,-487.3046875,-281.25,999.51171875,683.59375
1731718770999.6562,738.28125,-526.85546875,-770.01953125,913.57421875,759.27734375
1731718771003.5625,-54.19921875,-517.08984375,-1000,-705.078125,-132.32421875
1731718771007.4688,-119.140625,-454.1015625,-707.51953125,-926.7578125,-316.89453125
1731718771011.375,64.453125,-449.70703125,-444.3359375,777.83203125,-98.14453125
1731718771015.2812,164.0625,-495.60546875,-818.359375,999.51171875,11.71875
1731718771019.1875,221.6796875,-518.5546875,-1000,-530.2734375,-112.79296875
1731718771023.0938,289.55078125,-500.48828125,-825.1953125,-1000,47.36328125
1731718771027,899.90234375,-443.84765625,-170.8984375,577.1484375,898.92578125
1731718771030.9062,982.91015625,-440.4296875,-266.6015625,999.51171875,974.609375
1731718771034.8125,569.82421875,-478.02734375,-879.39453125,148.4375,569.3359375
1731718771038.7188,589.84375,-463.8671875,-730.46875,-1000,694.3359375
1731718771042.625,395.01953125,-458.984375,-417.96875,43.9453125,379.8828125
1731718771046.5312,-375,-517.08984375,-711.9140625,999.51171875,-493.1640625
1731718771050.4375,-66.89453125,-506.8359375,-999.0234375,656.73828125,-126.953125
1731718771054.3438,501.953125,-438.4765625,-830.078125,-903.80859375,593.75
1731718771058.25,-218.75,-431.15234375,-630.859375,-860.83984375,-144.04296875
1731718771062.1562,-770.5078125,-494.140625,-668.9453125,849.12109375,-783.69140625
1731718771066.0625,-65.4296875,-521.484375,-922.36328125,974.12109375,9.765625
1731718771069.9688,640.13671875,-482.421875,-889.6484375,-714.84375,683.10546875
1731718771073.875,95.703125,-449.21875,-757.32421875,-1000,-297.8515625
1731718771077.7812,-197.265625,-449.21875,-552.734375,683.59375,-430.17578125
1731718771081.6875,379.8828125,-457.51953125,-675.78125,993.65234375,548.828125
1731718771085.5938,738.76953125,-452.1484375,-800.29296875,-591.30859375,784.1796875
1731718771089.5,-107.421875,-463.8671875,-844.23828125,-1000,-282.2265625
1731718771093.4062,-630.37109375,-467.7734375,-757.32421875,21.484375,-999.0234375
1731718771097.3125,168.45703125,-447.265625,-729.00390625,999.51171875,-107.91015625
1731718771101.2188,695.3125,-423.33984375,-894.53125,-296.38671875,624.51171875
1731718771105.125,55.17578125,-425.78125,-1000,-1000,-288.0859375
1731718771109.0312,-600.09765625,-435.546875,-805.17578125,-721.6796875,-911.62109375
1731718771112.9375,43.9453125,-459.47265625,-607.91015625,585.9375,14.16015625
1731718771116.8438,706.54296875,-460.9375,-897.4609375,-268.06640625,488.76953125
1731718771120.75,47.36328125,-441.40625,-1000,-1000,-192.3828125
1731718771124.6562,-273.92578125,-412.59765625,-753.90625,-808.10546875,-250.48828125
1731718771128.5625,442.87109375,-407.2265625,-446.77734375,354.00390625,472.65625
1731718771132.4688,427.734375,-440.91796875,-827.1484375,-462.40234375,518.5546875
1731718771136.375,-260.7421875,-452.1484375,-1000,-1000,-99.12109375
1731718771140.2812,-469.7265625,-426.26953125,-979.00390625,-962.890625,-585.44921875
1731718771144.1875,436.5234375,-382.8125,-496.58203125,-648.92578125,306.640625
1731718771148.0938,981.4453125,-365.234375,-473.14453125,-711.9140625,999.51171875
1731718771152,56.640625,-426.26953125,-1000,-1000,101.07421875
1731718771155.9062,-479.00390625,-422.36328125,-991.2109375,-977.05078125,-366.2109375
1731718771159.8125,-266.11328125,-398.4375,-694.3359375,-1000,-324.21875
1731718771163.7188,-55.6640625,-433.10546875,-811.5234375,-1000,-294.921875
1731718771167.625,147.4609375,-431.640625,-1000,-1000,-77.1484375
1731718771171.5312,360.3515625,-388.18359375,-956.0546875,-1000,234.86328125
1731718771175.4375,796.38671875,-352.05078125,-508.30078125,-1000,648.4375
1731718771179.3438,687.98828125,-384.27734375,-476.07421875,-1000,478.02734375
1731718771183.25,196.77734375,-423.828125,-963.8671875,-1000,68.84765625
1731718771187.1562,380.859375,-381.8359375,-1000,-1000,201.171875
1731718771191.0625,666.50390625,-329.1015625,-623.53515625,-1000,562.98828125
1731718771194.9688,-47.8515625,-373.046875,-658.69140625,-1000,-296.875
1731718771198.875,35.64453125,-403.80859375,-968.26171875,-1000,-346.19140625
1731718771202.7812,573.73046875,-387.20703125,-1000,-1000,248.046875
1731718771206.6875,263.671875,-373.53515625,-966.30859375,-1000,-236.328125
1731718771210.5938,-85.9375,-361.81640625,-811.03515625,-1000,-793.45703125
1731718771214.5,367.1875,-365.234375,-923.828125,-1000,-341.796875
1731718771218.4062,913.57421875,-362.79296875,-1000,-1000,645.01953125
1731718771222.3125,634.765625,-353.515625,-905.76171875,-1000,446.2890625
1731718771226.2188,57.6171875,-359.86328125,-716.30859375,-1000,-469.7265625
1731718771230.125,336.42578125,-379.8828125,-743.65234375,-1000,-20.5078125
1731718771234.0312,888.18359375,-369.140625,-915.52734375,-1000,885.25390625
1731718771237.9375,505.37109375,-348.14453125,-956.0546875,-1000,399.90234375
1731718771241.8438,-417.96875,-363.76953125,-919.921875,-1000,-724.609375
1731718771245.75,-374.51171875,-400.87890625,-812.01171875,-1000,-481.93359375
1731718771249.6562,686.5234375,-396.484375,-899.4140625,-1000,699.70703125
1731718771253.5625,420.41015625,-395.99609375,-1000,-1000,295.41015625
1731718771257.4688,-428.7109375,-402.83203125,-987.3046875,-1000,-722.16796875
1731718771261.375,-195.80078125,-407.71484375,-761.71875,-1000,-561.03515625
1731718771265.2812,565.91796875,-416.9921875,-836.42578125,-1000,532.2265625
1731718771269.1875,553.22265625,-420.8984375,-1000,-984.86328125,779.78515625
1731718771273.0938,-132.32421875,-416.50390625,-991.69921875,-1000,-231.4453125
1731718771277,-146.484375,-406.25,-690.91796875,-867.1875,-422.8515625
1731718771280.9062,514.16015625,-412.109375,-692.3828125,-813.96484375,488.76953125
1731718771284.8125,593.26171875,-432.6171875,-996.09375,-944.3359375,446.77734375
1731718771288.7188,268.5546875,-421.875,-961.42578125,-1000,102.5390625
1731718771292.625,100.5859375,-416.50390625,-574.21875,-740.72265625,128.41796875
1731718771296.5312,701.66015625,-429.19921875,-395.01953125,413.0859375,760.25390625
1731718771300.4375,435.546875,-459.47265625,-886.71875,-557.6171875,458.49609375
1731718771304.3438,-139.16015625,-457.51953125,-1000,-1000,-283.69140625
1731718771308.25,101.07421875,-419.921875,-706.54296875,-697.75390625,-9.27734375
1731718771312.1562,383.30078125,-435.05859375,-477.5390625,557.12890625,599.12109375
1731718771316.0625,419.921875,-461.9140625,-886.71875,-80.56640625,601.5625
1731718771319.9688,308.59375,-448.2421875,-1000,-1000,183.10546875
1731718771323.875,300.78125,-413.57421875,-770.01953125,-1000,169.921875
1731718771327.7812,-2.9296875,-430.6640625,-621.58203125,380.859375,-163.0859375
1731718771331.6875,-101.07421875,-460.44921875,-905.76171875,537.59765625,-230.46875
1731718771335.5938,88.8671875,-460.44921875,-1000,-836.9140625,88.37890625
1731718771339.5,591.796875,-414.0625,-712.890625,-1000,684.5703125
1731718771343.4062,607.91015625,-403.3203125,-349.12109375,-215.8203125,674.31640625
1731718771347.3125,95.703125,-454.1015625,-680.6640625,858.3984375,123.046875
1731718771351.2188,300.78125,-458.0078125,-1000,-449.70703125,278.80859375
1731718771355.125,410.15625,-437.98828125,-898.92578125,-1000,397.94921875
1731718771359.0312,-133.7890625,-430.6640625,-632.8125,-775.390625,-118.65234375
1731718771362.9375,-20.01953125,-450.1953125,-594.23828125,766.11328125,80.078125
1731718771366.8438,522.4609375,-462.40234375,-914.55078125,403.80859375,730.95703125
1731718771370.75,844.23828125,-413.0859375,-742.1875,-1000,908.203125
1731718771374.6562,-74.21875,-416.9921875,-629.39453125,-919.43359375,-157.71484375
1731718771378.5625,-656.25,-465.33203125,-728.02734375,622.55859375,-753.90625
1731718771382.4688,90.8203125,-463.37890625,-921.38671875,714.35546875,202.63671875
1731718771386.375,276.85546875,-454.58984375,-1000,-783.69140625,341.30859375
1731718771390.2812,-300.78125,-439.94140625,-964.84375,-1000,-594.7265625
1731718771394.1875,-520.01953125,-455.56640625,-770.99609375,334.47265625,-802.24609375
1731718771398.0938,293.9453125,-464.84375,-814.94140625,940.91796875,235.83984375
1731718771402,840.8203125,-456.54296875,-953.125,-590.33203125,778.3203125
1731718771405.9062,521.484375,-448.2421875,-854.98046875,-1000,182.6171875
1731718771409.8125,196.2890625,-440.91796875,-567.87109375,-437.01171875,-126.953125
1731718771413.7188,583.0078125,-444.82421875,-526.85546875,913.0859375,646.484375
1731718771417.625,832.03125,-440.4296875,-805.6640625,-172.36328125,885.25390625
1731718771421.5312,80.56640625,-448.73046875,-1000,-1000,-334.9609375
1731718771425.4375,-387.6953125,-440.91796875,-842.28515625,-774.90234375,-884.27734375
1731718771429.3438,287.109375,-438.96484375,-546.38671875,518.5546875,353.02734375
1731718771433.25,329.1015625,-458.49609375,-854.98046875,-228.515625,561.03515625
1731718771437.1562,-277.83203125,-460.9375,-1000,-1000,-371.58203125
1731718771441.0625,-230.95703125,-432.12890625,-885.25390625,-853.02734375,-553.22265625
1731718771444.9688,383.7890625,-429.6875,-588.8671875,566.89453125,20.5078125
1731718771448.875,543.9453125,-453.61328125,-871.09375,292.48046875,127.44140625
1731718771452.7812,528.3203125,-445.3125,-1000,-1000,232.421875
1731718771456.6875,429.6875,-424.31640625,-795.41015625,-1000,302.24609375
1731718771460.5938,800.78125,-400.87890625,-295.8984375,342.28515625,781.73828125
1731718771464.5,712.890625,-424.31640625,-574.21875,802.24609375,630.859375
1731718771468.4062,128.41796875,-457.03125,-1000,-694.3359375,-84.47265625
1731718771472.3125,104.4921875,-427.734375,-959.47265625,-1000,-274.90234375
1731718771476.2188,-102.05078125,-418.9453125,-706.0546875,-587.890625,-533.203125
1731718771480.125,-528.80859375,-464.35546875,-792.96875,682.6171875,-419.921875
1731718771484.0312,-193.359375,-473.14453125,-1000,-357.91015625,-49.8046875
1731718771487.9375,156.25,-443.84765625,-979.98046875,-1000,95.703125
1731718771491.8438,-81.54296875,-420.8984375,-741.69921875,-871.09375,-169.921875
1731718771495.75,-325.68359375,-451.171875,-689.453125,644.04296875,-372.0703125
1731718771499.6562,357.421875,-465.33203125,-954.1015625,713.8671875,425.29296875
1731718771503.5625,811.03515625,-432.6171875,-900.390625,-948.2421875,887.20703125
1731718771507.4688,-17.578125,-425.29296875,-770.01953125,-1000,-89.35546875
1731718771511.375,-560.546875,-455.078125,-710.44921875,553.22265625,-690.91796875
1731718771515.2812,34.1796875,-460.9375,-900.87890625,983.3984375,16.11328125
1731718771519.1875,726.07421875,-431.15234375,-948.73046875,-614.2578125,778.3203125
1731718771523.0938,77.1484375,-427.24609375,-859.375,-1000,0.48828125
1731718771527,-468.26171875,-441.40625,-738.28125,-38.57421875,-801.7578125
1731718771530.9062,47.36328125,-457.03125,-857.421875,999.51171875,-156.73828125
1731718771534.8125,853.02734375,-441.40625,-889.16015625,-342.7734375,855.46875
1731718771538.7188,394.53125,-427.24609375,-836.42578125,-1000,240.234375
1731718771542.625,-497.55859375,-443.359375,-783.69140625,-707.51953125,-754.39453125
1731718771546.5312,81.0546875,-464.35546875,-627.9296875,845.703125,9.765625
1731718771550.4375,867.1875,-455.078125,-727.5390625,448.2421875,914.0625
1731718771554.3438,355.95703125,-447.265625,-914.55078125,-1000,180.17578125
1731718771558.25,-378.41796875,-447.75390625,-840.33203125,-951.66015625,-820.80078125
1731718771562.1562,-107.421875,-455.078125,-613.76953125,674.31640625,-386.71875
1731718771566.0625,425.78125,-463.37890625,-864.2578125,898.4375,411.62109375
1731718771569.9688,-116.69921875,-474.12109375,-1000,-818.359375,30.2734375
1731718771573.875,-562.01171875,-460.44921875,-913.57421875,-1000,-584.47265625
1731718771577.7812,111.81640625,-447.265625,-523.92578125,544.921875,8.7890625
1731718771581.6875,507.8125,-472.65625,-711.42578125,981.4453125,576.66015625
1731718771585.5938,-52.734375,-489.74609375,-1000,-615.234375,116.69921875
1731718771589.5,-247.55859375,-466.30859375,-986.81640625,-1000,-432.6171875
1731718771593.4062,237.3046875,-447.265625,-568.84765625,-60.546875,-60.546875
1731718771597.3125,576.171875,-472.65625,-568.359375,999.51171875,720.21484375
1731718771601.2188,411.1328125,-497.55859375,-987.79296875,-239.74609375,568.84765625
1731718771605.125,-153.3203125,-482.421875,-1000,-1000,-187.5
1731718771609.0312,216.30859375,-435.546875,-575.1953125,-692.3828125,253.90625
1731718771612.9375,538.57421875,-453.125,-475.09765625,877.9296875,507.8125
1731718771616.8438,241.2109375,-488.28125,-971.6796875,586.42578125,20.5078125
1731718771620.75,187.01171875,-468.75,-1000,-1000,12.20703125
1731718771624.6562,509.765625,-426.26953125,-639.16015625,-967.7734375,386.71875
1731718771628.5625,221.19140625,-455.56640625,-564.453125,662.59765625,-89.84375
1731718771632.4688,159.1796875,-482.421875,-944.3359375,985.3515625,44.43359375
1731718771636.375,737.79296875,-451.171875,-1000,-680.17578125,709.9609375
1731718771640.2812,898.92578125,-400.390625,-580.078125,-1000,786.1328125
1731718771644.1875,410.15625,-418.45703125,-391.6015625,432.12890625,302.734375
1731718771648.0938,-96.6796875,-469.23828125,-836.9140625,974.609375,-70.3125
1731718771652,316.89453125,-462.890625,-1000,-583.0078125,340.8203125
1731718771655.9062,614.74609375,-419.43359375,-758.7890625,-1000,477.05078125
1731718771659.8125,-201.171875,-416.9921875,-679.19921875,-437.98828125,-489.74609375
1731718771663.7188,-322.75390625,-447.75390625,-820.80078125,932.6171875,-437.01171875
1731718771667.625,244.140625,-448.73046875,-1000,-111.328125,426.7578125
1731718771671.5312,122.55859375,-436.03515625,-1000,-1000,136.23046875
1731718771675.4375,-194.82421875,-421.875,-787.59765625,-866.2109375,-701.66015625
1731718771679.3438,-143.06640625,-447.75390625,-701.171875,699.70703125,-474.12109375
1731718771683.25,487.79296875,-448.2421875,-962.890625,751.46484375,516.6015625
1731718771687.1562,836.9140625,-411.62109375,-929.6875,-968.26171875,768.06640625
1731718771691.0625,443.359375,-402.34375,-623.53515625,-917.48046875,145.01953125
1731718771694.9688,343.26171875,-426.26953125,-450.1953125,667.48046875,41.50390625
1731718771698.875,824.21875,-425.78125,-656.73828125,954.58984375,808.10546875
1731718771702.7812,922.8515625,-398.4375,-699.70703125,-622.55859375,968.26171875
1731718771706.6875,-127.9296875,-418.45703125,-769.04296875,-1000,-293.9453125
1731718771710.5938,-597.65625,-436.5234375,-659.66796875,135.7421875,-725.5859375
1731718771714.5,27.34375,-437.01171875,-727.5390625,845.21484375,234.375
1731718771718.4062,294.43359375,-452.63671875,-1000,-600.5859375,215.8203125
1731718771722.3125,-128.41796875,-450.68359375,-1000,-1000,-472.16796875
1731718771726.2188,-284.66796875,-439.453125,-728.515625,-583.0078125,-598.6328125
1731718771730.125,369.140625,-458.49609375,-654.78515625,889.16015625,62.01171875
1731718771734.0312,723.14453125,-470.21484375,-957.03125,6.8359375,681.640625
1731718771737.9375,342.28515625,-460.9375,-916.50390625,-1000,440.4296875
1731718771741.8438,7.8125,-447.265625,-600.09765625,-871.09375,-5.859375
1731718771745.75,560.05859375,-444.82421875,-463.37890625,593.75,578.61328125
1731718771749.6562,633.30078125,-466.30859375,-862.3046875,562.01171875,809.08203125
1731718771753.5625,36.62109375,-467.28515625,-1000,-997.0703125,46.875
1731718771757.4688,178.22265625,-426.7578125,-822.265625,-1000,-244.62890625
1731718771761.375,508.7890625,-422.36328125,-454.1015625,578.61328125,430.17578125
1731718771765.2812,42.96875,-460.9375,-833.0078125,639.6484375,223.6328125
1731718771769.1875,74.21875,-462.40234375,-1000,-774.90234375,-111.328125
1731718771773.0938,277.34375,-424.8046875,-860.3515625,-1000,26.85546875
1731718771777,-54.6875,-424.31640625,-586.42578125,-61.03515625,-53.22265625
1731718771780.9062,64.94140625,-447.265625,-721.6796875,985.83984375,215.8203125
1731718771784.8125,457.03125,-449.21875,-1000,-380.859375,712.890625
1731718771788.7188,690.91796875,-428.22265625,-789.0625,-1000,844.23828125
1731718771792.625,590.33203125,-410.64453125,-440.91796875,-704.58984375,434.5703125
1731718771796.5312,-140.13671875,-458.0078125,-695.80078125,824.21875,-313.4765625
1731718771800.4375,38.57421875,-474.12109375,-998.046875,271.484375,18.06640625
1731718771804.3438,338.8671875,-447.265625,-986.81640625,-1000,297.8515625
1731718771808.25,19.53125,-458.984375,-758.7890625,-923.828125,-202.63671875
1731718771812.1562,-266.11328125,-484.86328125,-686.03515625,656.25,-527.83203125
1731718771816.0625,108.3984375,-501.953125,-941.40625,919.43359375,98.6328125
1731718771819.9688,699.70703125,-436.5234375,-898.4375,-834.47265625,701.66015625
1731718771823.875,117.67578125,-381.34765625,-699.21875,-1000,-139.16015625
1731718771827.7812,199.70703125,-408.69140625,-397.4609375,634.765625,-170.41015625
1731718771831.6875,911.1328125,-386.71875,-506.8359375,999.51171875,794.921875
1731718771835.5938,706.54296875,-439.453125,-876.46484375,-496.58203125,659.1796875
1731718771839.5,-139.16015625,-533.69140625,-981.4453125,-1000,-318.359375
1731718771843.4062,-624.51171875,-399.4140625,-742.1875,-74.70703125,-757.32421875
1731718771847.3125,-178.22265625,-458.49609375,-856.93359375,491.69921875,-92.7734375
1731718771851.2188,605.46875,-473.14453125,-1000,-852.5390625,668.9453125
1731718771855.125,-97.16796875,-326.171875,-987.3046875,-1000,-163.0859375
1731718771859.0312,-876.953125,-501.46484375,-1000,-901.3671875,-1000
1731718771862.9375,44.43359375,-495.1171875,-780.2734375,650.390625,-152.83203125
1731718771866.8438,923.33984375,-400.87890625,-761.71875,714.35546875,937.5
1731718771870.75,343.26171875,-514.6484375,-981.93359375,-1000,239.2578125
1731718771874.6562,234.375,-410.64453125,-588.8671875,-869.140625,1.46484375
1731718771878.5625,681.640625,-407.71484375,-142.08984375,803.7109375,728.02734375
1731718771882.4688,848.14453125,-421.875,-472.65625,965.33203125,943.359375
1731718771886.375,423.828125,-364.2578125,-981.93359375,-682.12890625,223.6328125
1731718771890.2812,-265.625,-394.04296875,-950.68359375,-1000,-544.921875
1731718771894.1875,222.16796875,-364.74609375,-542.96875,-58.59375,171.38671875
1731718771898.0938,351.07421875,-445.80078125,-778.80859375,-498.046875,380.37109375
1731718771902,-291.50390625,-518.5546875,-1000,-1000,-402.83203125
1731718771905.9062,-292.96875,-491.69921875,-979.98046875,-1000,-603.515625
1731718771909.8125,239.2578125,-480.46875,-699.21875,-775.87890625,-38.57421875
1731718771913.7188,150.390625,-415.52734375,-681.640625,829.58984375,244.140625
1731718771917.625,41.50390625,-445.3125,-1000,146.97265625,226.07421875
1731718771921.5312,506.34765625,-404.296875,-792.48046875,-1000,559.5703125
1731718771925.4375,853.02734375,-319.82421875,-226.07421875,-602.05078125,781.25
1731718771929.3438,656.73828125,-490.234375,-333.49609375,952.63671875,530.2734375
1731718771933.25,318.84765625,-473.6328125,-905.76171875,796.875,377.9296875
1731718771937.1562,238.76953125,-437.01171875,-1000,-905.76171875,267.578125
1731718771941.0625,15.625,-417.96875,-763.18359375,-1000,-91.30859375
1731718771944.9688,-448.73046875,-358.3984375,-661.1328125,373.046875,-547.8515625
1731718771948.875,-462.40234375,-480.95703125,-948.2421875,-355.95703125,-447.75390625
1731718771952.7812,324.21875,-461.42578125,-999.51171875,-1000,231.4453125
1731718771956.6875,555.6640625,-470.21484375,-798.33984375,-1000,440.91796875
1731718771960.5938,-247.0703125,-521.484375,-682.6171875,99.609375,-540.0390625
1731718771964.5,4.8828125,-453.61328125,-829.58984375,999.51171875,-266.6015625
1731718771968.4062,674.31640625,-459.9609375,-953.125,-290.52734375,750
1731718771972.3125,571.2890625,-399.90234375,-687.98828125,-1000,656.25
1731718771976.2188,-81.54296875,-439.94140625,-545.8984375,-141.11328125,-306.15234375
1731718771980.125,194.3359375,-501.953125,-645.01953125,999.51171875,-83.984375
1731718771984.0312,873.046875,-456.54296875,-826.171875,386.23046875,789.0625
1731718771987.9375,157.71484375,-460.9375,-976.5625,-1000,110.3515625
1731718771991.8438,-875,-411.1328125,-818.359375,-968.75,-773.4375
1731718771995.75,-831.54296875,-448.2421875,-690.91796875,673.33984375,-430.17578125
1731718771999.6562,454.58984375,-466.30859375,-837.40234375,912.109375,714.35546875
1731718772003.5625,297.36328125,-458.49609375,-979.98046875,-844.7265625,370.1171875
1731718772007.4688,-669.921875,-480.95703125,-952.63671875,-1000,-682.6171875
1731718772011.375,-502.44140625,-439.94140625,-632.8125,673.828125,-418.9453125
1731718772015.2812,666.015625,-423.828125,-538.0859375,999.51171875,777.83203125
1731718772019.1875,844.23828125,-427.24609375,-737.3046875,-609.375,888.18359375
1731718772023.0938,-352.5390625,-464.84375,-874.0234375,-1000,-299.31640625
1731718772027,-394.53125,-486.328125,-624.51171875,254.39453125,-518.06640625
1731718772030.9062,744.140625,-437.5,-450.1953125,999.51171875,717.28515625
1731718772034.8125,469.23828125,-455.56640625,-909.66796875,-308.59375,445.3125
1731718772038.7188,-80.56640625,-428.7109375,-985.3515625,-1000,-268.5546875
1731718772042.625,36.1328125,-399.90234375,-520.99609375,-590.8203125,-89.35546875
1731718772046.5312,-26.3671875,-458.0078125,-533.69140625,942.87109375,238.28125
1731718772050.4375,-246.09375,-492.67578125,-961.9140625,679.6875,164.0625
1731718772054.3438,-138.671875,-478.515625,-1000,-988.28125,-214.35546875
1731718772058.25,-8.30078125,-426.7578125,-664.55078125,-938.4765625,-266.6015625
1731718772062.1562,252.9296875,-446.77734375,-397.4609375,727.05078125,192.87109375
1731718772066.0625,507.8125,-482.421875,-785.64453125,995.1171875,632.8125
1731718772069.9688,167.48046875,-488.28125,-1000,-708.49609375,111.81640625
1731718772073.875,450.1953125,-464.35546875,-708.984375,-1000,249.0234375
1731718772077.7812,545.8984375,-447.75390625,-395.01953125,625.9765625,420.8984375
1731718772081.6875,-223.14453125,-484.375,-852.5390625,999.51171875,-177.24609375
1731718772085.5938,-132.32421875,-476.07421875,-1000,-625.9765625,46.875
1731718772089.5,349.12109375,-428.7109375,-794.921875,-1000,352.5390625
1731718772093.4062,-181.15234375,-457.03125,-613.76953125,185.05859375,-257.8125
1731718772097.3125,9.27734375,-486.81640625,-695.3125,999.51171875,-46.875
1731718772101.2188,822.75390625,-438.4765625,-891.6015625,89.84375,749.0234375
1731718772105.125,857.421875,-399.4140625,-653.3203125,-1000,810.546875
1731718772109.0312,225.5859375,-397.4609375,-407.2265625,-641.6015625,215.8203125
1731718772112.9375,-29.78515625,-470.21484375,-540.0390625,965.8203125,178.22265625
1731718772116.8438,425.29296875,-510.25390625,-910.15625,691.40625,608.3984375
1731718772120.75,333.0078125,-457.51953125,-1000,-964.35546875,267.578125
1731718772124.6562,-475.09765625,-430.17578125,-797.8515625,-992.1875,-447.75390625
1731718772128.5625,-841.30859375,-442.87109375,-648.92578125,663.57421875,-562.98828125
1731718772132.4688,-157.2265625,-461.9140625,-903.3203125,999.51171875,205.078125
1731718772136.375,865.234375,-464.84375,-817.87109375,-699.21875,952.1484375
1731718772140.2812,417.48046875,-459.47265625,-758.30078125,-1000,-108.3984375
1731718772144.1875,-200.68359375,-441.89453125,-687.98828125,582.03125,-842.7734375
1731718772148.0938,420.41015625,-408.203125,-706.54296875,999.51171875,191.40625
1731718772152,732.421875,-395.01953125,-912.59765625,-432.12890625,576.171875
1731718772155.9062,362.3046875,-431.640625,-848.6328125,-1000,-41.50390625
1731718772159.8125,246.09375,-473.6328125,-561.03515625,-142.08984375,-291.50390625
1731718772163.7188,680.17578125,-496.09375,-561.03515625,999.51171875,447.75390625
1731718772167.625,652.34375,-486.81640625,-924.8046875,43.9453125,497.55859375
1731718772171.5312,-156.25,-433.10546875,-1000,-1000,-404.78515625
1731718772175.4375,-490.72265625,-395.99609375,-781.73828125,-812.01171875,-751.46484375
1731718772179.3438,366.2109375,-421.38671875,-501.953125,773.92578125,312.5
1731718772183.25,621.09375,-479.00390625,-850.5859375,886.23046875,576.171875
1731718772187.1562,68.84765625,-497.55859375,-1000,-850.09765625,-290.52734375
1731718772191.0625,-84.9609375,-441.89453125,-762.6953125,-1000,-423.828125
1731718772194.9688,312.5,-415.52734375,-399.90234375,674.31640625,211.42578125
1731718772198.875,309.08203125,-418.9453125,-793.45703125,999.51171875,323.73046875
1731718772202.7812,439.453125,-442.87109375,-1000,-692.87109375,375.9765625
1731718772206.6875,251.953125,-481.93359375,-797.36328125,-1000,293.45703125
1731718772210.5938,360.83984375,-478.02734375,-483.3984375,528.3203125,203.61328125
1731718772214.5,627.9296875,-474.12109375,-648.92578125,999.51171875,387.20703125
1731718772218.4062,286.62109375,-455.078125,-1000,-392.578125,86.9140625
1731718772222.3125,146.484375,-409.66796875,-929.19921875,-1000,-38.0859375
1731718772226.2188,733.3984375,-392.08984375,-327.1484375,42.96875,704.58984375
1731718772230.125,375,-465.8203125,-466.30859375,999.51171875,355.95703125
1731718772234.0312,-265.13671875,-515.625,-1000,580.078125,-65.4296875
1731718772237.9375,93.26171875,-455.56640625,-928.22265625,-989.74609375,383.7890625
1731718772241.8438,709.47265625,-379.8828125,-370.1171875,-763.18359375,725.5859375
1731718772245.75,68.359375,-424.8046875,-416.50390625,899.90234375,21.484375
1731718772249.6562,168.45703125,-476.07421875,-933.10546875,857.421875,243.1640625
1731718772253.5625,916.9921875,-465.8203125,-877.9296875,-749.51171875,939.94140625
1731718772257.4688,862.79296875,-438.4765625,-456.54296875,-1000,806.15234375
1731718772261.375,-198.73046875,-466.796875,-509.765625,651.3671875,-309.08203125
1731718772265.2812,-186.5234375,-471.6796875,-936.5234375,999.51171875,-341.796875
1731718772269.1875,849.609375,-429.19921875,-893.06640625,-602.05078125,788.0859375
1731718772273.0938,458.49609375,-429.6875,-671.38671875,-1000,364.2578125
1731718772277,-551.7578125,-486.328125,-666.9921875,469.7265625,-848.14453125
1731718772280.9062,-237.79296875,-511.23046875,-803.22265625,999.51171875,-365.234375
1731718772284.8125,752.44140625,-463.37890625,-853.02734375,210.44921875,760.7421875
1731718772288.7188,227.5390625,-434.08203125,-864.2578125,-1000,-4.8828125
1731718772292.625,-795.8984375,-454.1015625,-767.578125,-307.6171875,-928.22265625
1731718772296.5312,-314.94140625,-482.91015625,-601.5625,999.51171875,26.85546875
1731718772300.4375,767.578125,-472.65625,-759.27734375,739.74609375,909.66796875
1731718772304.3438,98.14453125,-474.609375,-964.84375,-878.90625,94.23828125
1731718772308.25,-963.8671875,-470.703125,-837.890625,-937.5,-839.84375
1731718772312.1562,-476.5625,-461.9140625,-599.12109375,771.484375,-431.15234375
1731718772316.0625,308.10546875,-467.7734375,-839.84375,999.51171875,351.07421875
1731718772319.9688,74.70703125,-474.609375,-1000,-707.51953125,23.4375
1731718772323.875,-465.33203125,-468.75,-946.77734375,-1000,-667.96875
1731718772327.7812,-253.41796875,-462.890625,-596.6796875,672.8515625,-280.2734375
1731718772331.6875,375.48828125,-451.66015625,-730.46875,999.51171875,411.62109375
1731718772335.5938,474.12109375,-446.2890625,-1000,-563.96484375,287.109375
1731718772339.5,-3.41796875,-438.4765625,-999.0234375,-1000,-378.90625
1731718772343.4062,167.48046875,-438.4765625,-531.73828125,134.27734375,127.9296875
1731718772347.3125,835.44921875,-449.21875,-388.671875,999.51171875,999.51171875
1731718772351.2188,449.21875,-464.84375,-944.82421875,-92.28515625,374.51171875
1731718772355.125,-89.35546875,-449.21875,-1000,-1000,-348.6328125
1731718772359.0312,157.71484375,-402.83203125,-573.2421875,-631.34765625,70.80078125
1731718772362.9375,1.953125,-437.5,-533.69140625,936.5234375,190.91796875
1731718772366.8438,-226.5625,-489.2578125,-972.16796875,748.046875,-17.08984375
1731718772370.75,-21.484375,-460.44921875,-1000,-940.91796875,-15.625
1731718772374.6562,38.57421875,-423.33984375,-747.0703125,-993.65234375,-221.19140625
1731718772378.5625,-52.734375,-430.17578125,-618.1640625,681.15234375,-446.77734375
1731718772382.4688,42.48046875,-445.3125,-931.640625,775.390625,-106.93359375
1731718772386.375,439.94140625,-442.87109375,-1000,-742.1875,425.29296875
1731718772390.2812,682.12890625,-412.59765625,-693.359375,-1000,593.75
1731718772394.1875,331.54296875,-420.8984375,-430.6640625,299.31640625,192.87109375
1731718772398.0938,85.9375,-458.49609375,-768.06640625,985.3515625,93.26171875
1731718772402,486.328125,-441.40625,-1000,-547.36328125,395.99609375
1731718772405.9062,747.0703125,-393.06640625,-694.82421875,-1000,602.05078125
1731718772409.8125,-157.2265625,-421.875,-601.07421875,-460.9375,-351.07421875
1731718772413.7188,-437.5,-475.5859375,-812.5,847.65625,-502.44140625
1731718772417.625,239.74609375,-461.42578125,-966.796875,-224.12109375,448.2421875
1731718772421.5312,492.67578125,-417.48046875,-856.4453125,-1000,478.515625
1731718772425.4375,-297.36328125,-417.96875,-782.2265625,-756.8359375,-589.35546875
1731718772429.3438,-511.71875,-451.171875,-783.203125,436.03515625,-633.7890625
1731718772433.25,324.21875,-453.61328125,-962.890625,-425.78125,384.765625
1731718772437.1562,516.11328125,-438.4765625,-1000,-1000,651.85546875
1731718772441.0625,-33.69140625,-426.26953125,-751.46484375,-883.30078125,32.2265625
1731718772444.9688,87.890625,-431.15234375,-539.55078125,403.80859375,-14.16015625
1731718772448.875,821.77734375,-407.71484375,-694.3359375,-159.66796875,753.90625
1731718772452.7812,939.94140625,-394.53125,-750,-1000,964.35546875
1731718772456.6875,-146.484375,-415.52734375,-854.98046875,-1000,-305.6640625
1731718772460.5938,-455.56640625,-427.24609375,-717.28515625,-232.91015625,-795.8984375
1731718772464.5,292.96875,-436.03515625,-757.8125,99.12109375,102.5390625
1731718772468.4062,159.1796875,-415.52734375,-1000,-960.9375,149.90234375
1731718772472.3125,-304.6875,-410.15625,-1000,-1000,-522.4609375
1731718772476.2188,-320.80078125,-404.296875,-828.61328125,-711.42578125,-712.890625
1731718772480.125,-58.10546875,-420.41015625,-698.2421875,404.296875,20.5078125
1731718772484.0312,204.1015625,-457.51953125,-971.19140625,-548.33984375,636.23046875
1731718772487.9375,240.72265625,-418.9453125,-993.65234375,-1000,486.81640625
1731718772491.8438,83.0078125,-384.27734375,-635.25390625,-795.41015625,54.6875
1731718772495.75,73.73046875,-403.3203125,-512.20703125,528.80859375,164.55078125
1731718772499.6562,438.96484375,-416.50390625,-894.04296875,-136.23046875,339.35546875
1731718772503.5625,600.5859375,-429.6875,-1000,-1000,173.828125
1731718772507.4688,79.58984375,-420.8984375,-836.42578125,-936.03515625,-117.1875
1731718772511.375,682.12890625,-392.578125,-290.0390625,503.90625,701.66015625
1731718772515.2812,579.1015625,-417.96875,-660.15625,611.328125,576.171875
1731718772519.1875,100.09765625,-419.43359375,-1000,-829.58984375,-69.3359375
1731718772523.0938,-32.2265625,-402.83203125,-930.17578125,-1000,-152.34375
1731718772527,-196.77734375,-419.921875,-698.73046875,-58.10546875,-472.65625
1731718772530.9062,306.15234375,-442.3828125,-747.55859375,958.0078125,119.62890625
1731718772534.8125,584.9609375,-442.87109375,-972.65625,-278.3203125,790.0390625
1731718772538.7188,479.98046875,-407.71484375,-822.265625,-1000,612.79296875
1731718772542.625,-106.4453125,-392.578125,-634.765625,-643.5546875,-225.09765625
1731718772546.5312,-296.875,-427.734375,-710.44921875,920.8984375,-347.16796875
1731718772550.4375,0,-465.8203125,-972.16796875,595.21484375,250.48828125
1731718772554.3438,590.8203125,-440.91796875,-872.0703125,-1000,728.02734375
1731718772558.25,471.19140625,-415.0390625,-529.78515625,-967.28515625,380.37109375
1731718772562.1562,-188.96484375,-452.1484375,-517.578125,666.015625,-248.53515625
1731718772566.0625,86.42578125,-455.078125,-889.6484375,997.55859375,164.0625
1731718772569.9688,628.41796875,-433.10546875,-958.984375,-714.84375,645.5078125
1731718772573.875,-110.3515625,-433.59375,-847.16796875,-1000,-257.8125
1731718772577.7812,-465.8203125,-453.61328125,-620.1171875,591.30859375,-462.890625
1731718772581.6875,286.1328125,-455.56640625,-726.5625,999.51171875,495.60546875
1731718772585.5938,862.3046875,-416.9921875,-805.6640625,-528.3203125,943.84765625
1731718772589.5,-49.31640625,-416.50390625,-804.6875,-1000,4.39453125
1731718772593.4062,-761.23046875,-431.640625,-741.69921875,-212.40234375,-861.328125
1731718772597.3125,-28.80859375,-446.77734375,-748.046875,999.51171875,-190.4296875
1731718772601.2188,354.98046875,-465.33203125,-974.609375,-215.33203125,325.68359375
1731718772605.125,-81.54296875,-448.2421875,-1000,-1000,-301.26953125
1731718772609.0312,-324.21875,-421.875,-890.13671875,-842.7734375,-832.51953125
1731718772612.9375,62.98828125,-437.01171875,-694.82421875,716.796875,-226.07421875
1731718772616.8438,598.6328125,-446.2890625,-916.015625,675.78125,608.88671875
1731718772620.75,357.91015625,-434.08203125,-1000,-1000,352.05078125
1731718772624.6562,139.6484375,-417.96875,-754.8828125,-986.81640625,-152.83203125
1731718772628.5625,520.5078125,-413.57421875,-393.06640625,667.96875,441.40625
1731718772632.4688,982.421875,-385.25390625,-519.53125,951.66015625,999.51171875
1731718772636.375,387.20703125,-404.78515625,-983.3984375,-697.75390625,170.8984375
1731718772640.2812,-366.2109375,-420.41015625,-979.00390625,-1000,-629.8828125
1731718772644.1875,53.7109375,-413.57421875,-610.83984375,323.2421875,-367.1875
1731718772648.0938,86.9140625,-445.80078125,-821.2890625,553.22265625,-79.1015625
1731718772652,-309.08203125,-465.8203125,-1000,-841.30859375,-101.07421875
1731718772655.9062,-306.15234375,-436.5234375,-971.19140625,-1000,-301.7578125
1731718772659.8125,-296.875,-407.2265625,-699.21875,-567.3828125,-275.87890625
1731718772663.7188,-360.83984375,-443.84765625,-750.48828125,544.921875,-171.875
1731718772667.625,-197.75390625,-459.9609375,-1000,-558.59375,10.25390625
1731718772671.5312,271.97265625,-423.828125,-950.68359375,-1000,352.05078125
1731718772675.4375,808.59375,-366.2109375,-446.77734375,-748.53515625,772.4609375
1731718772679.3438,541.50390625,-390.625,-410.15625,428.22265625,578.125
1731718772683.25,37.109375,-432.6171875,-951.171875,-447.265625,50.78125
1731718772687.1562,252.44140625,-406.25,-1000,-1000,121.09375
1731718772691.0625,485.83984375,-376.953125,-676.26953125,-942.3828125,375
1731718772694.9688,-211.9140625,-405.76171875,-644.53125,-7.32421875,-380.37109375
1731718772698.875,-275.87890625,-429.6875,-934.5703125,-448.2421875,-294.921875
1731718772702.7812,155.76171875,-419.921875,-1000,-1000,288.0859375
1731718772706.6875,-103.515625,-403.80859375,-969.23828125,-1000,-145.99609375
1731718772710.5938,-467.28515625,-409.1796875,-750,-533.69140625,-697.265625
1731718772714.5,-352.5390625,-435.546875,-860.83984375,-262.20703125,-223.14453125
1731718772718.4062,201.171875,-434.5703125,-1000,-979.4921875,686.03515625
1731718772722.3125,257.8125,-401.85546875,-892.08984375,-1000,581.0546875
1731718772726.2188,-412.59765625,-397.4609375,-730.46875,-751.953125,-405.2734375
1731718772730.125,-360.83984375,-427.24609375,-806.15234375,124.51171875,-375.9765625
1731718772734.0312,626.953125,-416.9921875,-936.03515625,-689.94140625,736.81640625
1731718772737.9375,434.5703125,-397.4609375,-903.80859375,-1000,543.9453125
1731718772741.8438,-752.9296875,-414.55078125,-870.60546875,-787.59765625,-660.15625
1731718772745.75,-498.046875,-421.875,-748.046875,423.33984375,-475.09765625
1731718772749.6562,670.41015625,-403.3203125,-840.33203125,-399.4140625,669.921875
1731718772753.5625,331.0546875,-411.62109375,-997.0703125,-1000,356.4453125
1731718772757.4688,-277.34375,-413.0859375,-900.390625,-999.0234375,-456.0546875
1731718772761.375,120.1171875,-418.45703125,-604.98046875,336.9140625,-410.64453125
1731718772765.2812,813.4765625,-392.578125,-589.35546875,944.3359375,706.54296875
1731718772769.1875,992.1875,-395.01953125,-835.9375,-625.48828125,937.01171875
1731718772773.0938,185.546875,-416.9921875,-968.26171875,-1000,-370.60546875
1731718772777,-79.1015625,-410.15625,-685.05859375,-180.6640625,-591.30859375
1731718772780.9062,683.10546875,-418.45703125,-551.7578125,937.98828125,586.42578125
1731718772784.8125,343.75,-446.77734375,-951.66015625,-340.33203125,352.05078125
1731718772788.7188,-358.3984375,-442.3828125,-1000,-1000,-364.74609375
1731718772792.625,-114.74609375,-417.48046875,-632.8125,-665.0390625,-127.44140625
1731718772796.5312,66.89453125,-435.05859375,-562.5,895.01953125,249.0234375
1731718772800.4375,-256.8359375,-475.09765625,-955.078125,580.56640625,215.33203125
1731718772804.3438,-439.94140625,-472.16796875,-1000,-1000,-163.57421875
1731718772808.25,65.91796875,-428.7109375,-708.49609375,-854.4921875,-122.55859375
1731718772812.1562,657.2265625,-436.5234375,-389.6484375,708.0078125,464.35546875
1731718772816.0625,531.25,-456.0546875,-776.3671875,988.76953125,684.08203125
1731718772819.9688,96.6796875,-456.0546875,-1000,-709.47265625,183.59375
1731718772823.875,337.890625,-412.109375,-705.56640625,-1000,330.56640625
1731718772827.7812,634.27734375,-393.06640625,-295.41015625,649.4140625,607.91015625
1731718772831.6875,79.1015625,-426.7578125,-777.83203125,993.1640625,-20.99609375
1731718772835.5938,103.515625,-431.15234375,-1000,-573.73046875,75.1953125
1731718772839.5,247.0703125,-414.55078125,-853.515625,-1000,93.26171875
1731718772843.4062,-366.69921875,-423.828125,-692.87109375,-178.7109375,-564.453125
1731718772847.3125,-246.09375,-462.890625,-795.41015625,999.51171875,-311.03515625
1731718772851.2188,566.89453125,-449.70703125,-976.5625,-59.5703125,717.28515625
1731718772855.125,736.328125,-398.4375,-819.3359375,-1000,706.0546875
1731718772859.0312,395.01953125,-382.32421875,-548.33984375,-786.1328125,7.8125
1731718772862.9375,601.07421875,-405.76171875,-507.8125,809.08203125,99.609375
1731718772866.8438,986.81640625,-405.2734375,-877.44140625,729.98046875,613.76953125
1731718772870.75,958.984375,-364.2578125,-776.3671875,-981.93359375,872.55859375
1731718772874.6562,77.1484375,-377.9296875,-650.390625,-985.3515625,-142.578125
1731718772878.5625,-597.65625,-414.55078125,-701.66015625,658.203125,-761.71875
1731718772882.4688,37.109375,-419.921875,-907.71484375,883.7890625,114.2578125
1731718772886.375,369.140625,-421.875,-1000,-669.43359375,287.59765625
1731718772890.2812,-347.16796875,-433.10546875,-968.26171875,-1000,-560.546875
1731718772894.1875,-633.7890625,-445.80078125,-774.4140625,209.47265625,-788.57421875
1731718772898.0938,297.8515625,-444.3359375,-846.6796875,791.015625,56.15234375
1731718772902,606.4453125,-430.6640625,-1000,-651.85546875,386.23046875
1731718772905.9062,241.69921875,-408.69140625,-916.50390625,-1000,18.06640625
1731718772909.8125,64.453125,-404.78515625,-578.125,-543.45703125,-101.5625
1731718772913.7188,539.0625,-412.59765625,-497.55859375,708.0078125,575.1953125
1731718772917.625,789.0625,-414.55078125,-876.953125,-384.27734375,666.50390625
1731718772921.5312,31.73828125,-410.15625,-1000,-1000,-273.4375
1731718772925.4375,-426.26953125,-397.4609375,-812.01171875,-747.55859375,-748.53515625
1731718772929.3438,405.76171875,-392.578125,-488.28125,432.12890625,325.68359375
1731718772933.25,738.76953125,-406.73828125,-787.59765625,-425.29296875,724.609375
1731718772937.1562,-217.28515625,-428.7109375,-1000,-1000,-211.42578125
1731718772941.0625,-489.74609375,-416.9921875,-909.66796875,-886.71875,-504.8828125
1731718772944.9688,-7.8125,-411.1328125,-612.79296875,238.28125,-77.1484375
1731718772948.875,28.80859375,-420.41015625,-859.86328125,-396.484375,122.0703125
1731718772952.7812,125.48828125,-415.0390625,-1000,-1000,356.4453125
1731718772956.6875,311.5234375,-386.71875,-845.21484375,-992.67578125,371.58203125
1731718772960.5938,678.7109375,-357.91015625,-388.18359375,-708.984375,657.71484375
1731718772964.5,487.79296875,-379.8828125,-599.12109375,-651.3671875,635.7421875
1731718772968.4062,256.34765625,-403.3203125,-1000,-1000,287.109375
1731718772972.3125,261.71875,-378.90625,-955.56640625,-1000,56.640625
1731718772976.2188,373.53515625,-354.4921875,-618.65234375,-917.48046875,202.63671875
1731718772980.125,-8.30078125,-408.69140625,-750,-804.19921875,-257.32421875
1731718772984.0312,-1.46484375,-424.31640625,-1000,-931.15234375,-239.2578125
1731718772987.9375,221.19140625,-393.06640625,-992.67578125,-1000,93.26171875
1731718772991.8438,-288.57421875,-384.27734375,-859.86328125,-896.97265625,-403.80859375
1731718772995.75,-456.0546875,-405.2734375,-773.92578125,268.5546875,-580.078125
1731718772999.6562,382.32421875,-411.62109375,-974.12109375,-490.72265625,374.0234375
1731718773003.5625,680.6640625,-394.04296875,-956.0546875,-1000,940.91796875
1731718773007.4688,196.2890625,-378.90625,-750,-985.83984375,164.55078125
1731718773011.375,-303.22265625,-407.71484375,-727.05078125,-205.56640625,-750.48828125
1731718773015.2812,38.57421875,-425.78125,-929.6875,-455.078125,-326.171875
1731718773019.1875,666.015625,-401.85546875,-1000,-1000,598.14453125
1731718773023.0938,446.2890625,-383.30078125,-857.91015625,-1000,283.203125
1731718773027,-341.30859375,-400.87890625,-697.75390625,-405.2734375,-583.49609375
1731718773030.9062,-222.65625,-420.41015625,-833.984375,893.06640625,-186.03515625
1731718773034.8125,716.30859375,-409.66796875,-953.125,-293.45703125,777.83203125
1731718773038.7188,162.109375,-425.29296875,-952.1484375,-1000,104.98046875
1731718773042.625,-628.41796875,-422.36328125,-790.52734375,-746.09375,-747.0703125
1731718773046.5312,69.3359375,-439.94140625,-607.91015625,820.3125,35.15625
1731718773050.4375,871.58203125,-432.12890625,-818.84765625,594.7265625,888.671875
1731718773054.3438,590.33203125,-416.9921875,-1000,-1000,197.265625
1731718773058.25,-146.97265625,-427.734375,-874.0234375,-965.33203125,-752.44140625
1731718773062.1562,-185.546875,-441.89453125,-624.0234375,652.83203125,-365.234375
1731718773066.0625,779.78515625,-424.8046875,-623.53515625,999.51171875,815.91796875
1731718773069.9688,647.94921875,-412.109375,-871.09375,-697.75390625,497.55859375
1731718773073.875,-349.12109375,-428.7109375,-938.4765625,-1000,-635.7421875
1731718773077.7812,-114.2578125,-454.1015625,-574.70703125,600.5859375,-342.7734375
1731718773081.6875,822.75390625,-447.265625,-580.078125,999.51171875,797.8515625
1731718773085.5938,448.73046875,-460.9375,-972.65625,-533.69140625,388.18359375
1731718773089.5,-377.9296875,-461.9140625,-1000,-1000,-547.36328125
1731718773093.4062,38.0859375,-424.8046875,-539.0625,14.6484375,18.06640625
1731718773097.3125,914.0625,-412.109375,-307.12890625,999.51171875,960.44921875
1731718773101.2188,398.4375,-462.890625,-903.80859375,-4.8828125,318.84765625
1731718773105.125,-190.4296875,-465.33203125,-1000,-1000,-411.62109375
1731718773109.0312,-119.62890625,-419.43359375,-658.69140625,-746.09375,-212.890625
1731718773112.9375,-265.625,-428.22265625,-598.14453125,855.95703125,-165.52734375
1731718773116.8438,-106.93359375,-439.94140625,-961.42578125,789.0625,-68.359375
1731718773120.75,120.1171875,-424.31640625,-1000,-922.8515625,-24.90234375
1731718773124.6562,131.34765625,-420.8984375,-768.5546875,-1000,-219.7265625
1731718773128.5625,-62.01171875,-448.73046875,-631.8359375,676.7578125,-458.49609375
1731718773132.4688,45.41015625,-458.0078125,-916.50390625,986.81640625,-179.19921875
1731718773136.375,424.8046875,-432.12890625,-1000,-677.734375,166.9921875
1731718773140.2812,311.03515625,-417.96875,-772.94921875,-1000,260.25390625
1731718773144.1875,-24.90234375,-429.19921875,-463.37890625,455.078125,191.89453125
1731718773148.0938,164.55078125,-449.21875,-696.77734375,896.484375,395.01953125
1731718773152,403.3203125,-437.5,-1000,-641.6015625,477.05078125
1731718773155.9062,793.9453125,-375.9765625,-683.10546875,-1000,774.4140625
1731718773159.8125,152.83203125,-375.9765625,-520.99609375,-379.39453125,-15.625
1731718773163.7188,-337.890625,-422.36328125,-770.99609375,666.50390625,-544.921875
1731718773167.625,565.91796875,-400.390625,-960.9375,-572.265625,304.19921875
1731718773171.5312,720.21484375,-371.58203125,-898.4375,-1000,454.1015625
1731718773175.4375,-584.47265625,-406.73828125,-753.90625,-747.55859375,-562.01171875
1731718773179.3438,-709.47265625,-440.4296875,-656.73828125,431.15234375,-414.0625
1731718773183.25,285.15625,-407.2265625,-920.41015625,-419.921875,547.8515625
1731718773187.1562,532.2265625,-383.7890625,-1000,-1000,729.98046875
1731718773191.0625,9.27734375,-410.15625,-776.85546875,-854.00390625,43.45703125
1731718773194.9688,-230.46875,-436.5234375,-595.703125,317.87109375,-340.33203125
1731718773198.875,558.59375,-410.64453125,-789.0625,-393.5546875,576.171875
1731718773202.7812,569.3359375,-374.0234375,-993.1640625,-1000,585.44921875
1731718773206.6875,-302.734375,-375.48828125,-1000,-1000,-604.98046875
1731718773210.5938,-383.7890625,-384.765625,-795.41015625,-555.6640625,-799.31640625
1731718773214.5,532.2265625,-370.1171875,-752.9296875,-509.27734375,376.953125
1731718773218.4062,525.390625,-370.60546875,-970.703125,-1000,363.76953125
1731718773222.3125,-244.140625,-379.8828125,-1000,-1000,-552.24609375
1731718773226.2188,-433.59375,-394.53125,-883.7890625,-770.99609375,-717.28515625
1731718773230.125,613.76953125,-380.859375,-580.56640625,-340.8203125,542.96875
1731718773234.0312,951.171875,-352.5390625,-853.515625,-879.39453125,999.51171875
1731718773237.9375,213.37890625,-356.4453125,-1000,-1000,272.94921875
1731718773241.8438,-21.97265625,-352.5390625,-715.33203125,-784.66796875,-74.70703125
1731718773245.75,686.03515625,-361.81640625,-373.53515625,378.90625,645.99609375
1731718773249.6562,454.1015625,-373.53515625,-811.03515625,-506.8359375,450.1953125
1731718773253.5625,-58.59375,-374.51171875,-1000,-1000,-103.02734375
1731718773257.4688,228.515625,-364.74609375,-806.640625,-905.2734375,-111.81640625
1731718773261.375,-84.47265625,-381.8359375,-564.94140625,117.1875,-235.3515625
1731718773265.2812,-450.68359375,-409.66796875,-864.74609375,-448.73046875,-192.87109375
1731718773269.1875,-74.21875,-390.625,-1000,-1000,-146.484375
1731718773273.0938,-37.109375,-399.4140625,-903.3203125,-1000,-70.80078125
1731718773277,-237.79296875,-427.24609375,-609.86328125,4.8828125,-141.6015625
1731718773280.9062,181.15234375,-390.625,-674.8046875,214.35546875,70.80078125
1731718773284.8125,460.9375,-358.3984375,-1000,-980.95703125,523.4375
1731718773288.7188,651.85546875,-342.28515625,-871.09375,-1000,743.1640625
1731718773292.625,477.05078125,-385.25390625,-486.328125,-540.52734375,351.07421875
1731718773296.5312,-364.74609375,-483.3984375,-714.84375,644.04296875,-487.3046875
1731718773300.4375,-89.35546875,-472.65625,-1000,-516.11328125,-145.99609375
1731718773304.3438,526.85546875,-423.828125,-937.01171875,-1000,605.95703125
1731718773308.25,-174.31640625,-424.31640625,-743.1640625,-744.140625,-197.75390625
1731718773312.1562,-345.21484375,-435.546875,-525.87890625,752.9296875,-452.63671875
1731718773316.0625,634.27734375,-422.36328125,-796.38671875,706.0546875,592.28515625
1731718773319.9688,880.859375,-410.64453125,-908.69140625,-925.29296875,846.19140625
1731718773323.875,74.70703125,-466.30859375,-784.66796875,-995.1171875,-205.56640625
1731718773327.7812,-329.58984375,-509.27734375,-543.45703125,672.8515625,-416.50390625
1731718773331.6875,201.66015625,-454.1015625,-696.77734375,969.7265625,487.79296875
1731718773335.5938,870.60546875,-396.97265625,-895.5078125,-668.9453125,916.50390625
1731718773339.5,278.3203125,-384.765625,-878.41796875,-1000,-66.89453125
1731718773343.4062,-653.3203125,-442.3828125,-816.89453125,249.51171875,-1000
1731718773347.3125,-344.23828125,-485.83984375,-789.55078125,999.51171875,-326.66015625
1731718773351.2188,176.26953125,-458.984375,-973.6328125,-320.3125,310.05859375
1731718773355.125,-81.0546875,-452.1484375,-1000,-1000,-275.390625
1731718773359.0312,-591.796875,-451.66015625,-806.15234375,-340.8203125,-779.296875
1731718773362.9375,-159.1796875,-454.58984375,-595.21484375,999.51171875,-188.96484375
1731718773366.8438,492.1875,-413.57421875,-903.80859375,292.48046875,454.1015625
1731718773370.75,421.38671875,-367.1875,-1000,-1000,371.58203125
1731718773374.6562,-3.90625,-387.6953125,-653.80859375,-810.05859375,-41.015625
1731718773378.5625,292.96875,-407.2265625,-344.7265625,524.90234375,329.1015625
1731718773382.4688,489.2578125,-394.53125,-721.6796875,-397.4609375,652.83203125
1731718773386.375,-285.15625,-421.875,-1000,-1000,-35.64453125
1731718773390.2812,-539.0625,-440.91796875,-938.4765625,-843.75,-504.8828125
1731718773394.1875,283.69140625,-405.2734375,-441.89453125,439.94140625,236.81640625
1731718773398.0938,782.2265625,-341.796875,-574.70703125,-260.7421875,645.99609375
1731718773402,229.98046875,-341.30859375,-1000,-1000,-17.578125
1731718773405.9062,28.3203125,-395.99609375,-952.1484375,-1000,-314.453125
1731718773409.8125,85.9375,-446.2890625,-550.78125,120.1171875,-139.16015625
1731718773413.7188,-97.16796875,-453.125,-664.0625,196.77734375,-144.53125
1731718773417.625,153.80859375,-369.140625,-1000,-1000,-52.24609375
1731718773421.5312,651.3671875,-316.40625,-951.66015625,-1000,348.6328125
1731718773425.4375,870.60546875,-295.8984375,-406.73828125,-711.42578125,753.41796875
1731718773429.3438,390.13671875,-364.2578125,-387.6953125,286.1328125,447.265625
1731718773433.25,-177.24609375,-412.59765625,-948.73046875,-663.0859375,-51.26953125
1731718773437.1562,122.55859375,-393.06640625,-1000,-1000,75.1953125
1731718773441.0625,421.38671875,-384.27734375,-735.83984375,-909.66796875,374.51171875
1731718773444.9688,-251.953125,-413.57421875,-656.73828125,202.63671875,-392.08984375
1731718773448.875,-58.10546875,-404.296875,-923.828125,-402.34375,-411.62109375
1731718773452.7812,527.83203125,-375.48828125,-1000,-1000,225.5859375
1731718773456.6875,160.64453125,-385.25390625,-978.515625,-937.01171875,-101.07421875
1731718773460.5938,-556.640625,-412.109375,-812.5,-954.58984375,-771.97265625
1731718773464.5,-298.33984375,-429.6875,-886.23046875,-920.41015625,-424.31640625
1731718773468.4062,625.48828125,-398.92578125,-1000,-1000,579.1015625
1731718773472.3125,504.8828125,-374.0234375,-881.34765625,-998.53515625,589.84375
1731718773476.2188,-443.84765625,-395.01953125,-759.765625,-999.0234375,-504.39453125
1731718773480.125,-481.4453125,-436.5234375,-861.81640625,-1000,-673.33984375
1731718773484.0312,613.28125,-416.015625,-955.56640625,-1000,590.33203125
1731718773487.9375,919.921875,-364.2578125,-772.94921875,-1000,928.22265625
1731718773491.8438,-146.97265625,-377.44140625,-806.640625,-1000,-564.94140625
1731718773495.75,-362.79296875,-415.0390625,-777.83203125,-1000,-804.19921875
1731718773499.6562,520.99609375,-419.43359375,-891.6015625,-1000,536.1328125
1731718773503.5625,186.03515625,-429.6875,-1000,-1000,251.953125
1731718773507.4688,-660.15625,-412.109375,-998.53515625,-1000,-806.15234375
1731718773511.375,-366.69921875,-381.8359375,-791.50390625,-1000,-774.90234375
1731718773515.2812,508.7890625,-382.8125,-812.98828125,-1000,219.7265625
1731718773519.1875,706.54296875,-390.13671875,-1000,-947.265625,722.16796875
1731718773523.0938,-245.60546875,-411.1328125,-1000,-1000,-207.51953125
1731718773527,-583.0078125,-416.015625,-774.90234375,-766.6015625,-558.59375
1731718773530.9062,420.41015625,-407.71484375,-638.18359375,-267.08984375,492.67578125
1731718773534.8125,364.2578125,-408.203125,-948.73046875,-859.375,349.12109375
1731718773538.7188,-160.64453125,-381.8359375,-1000,-1000,-434.08203125
1731718773542.625,-79.58984375,-366.2109375,-736.328125,-785.15625,-334.9609375
1731718773546.5312,752.9296875,-372.55859375,-380.859375,395.99609375,738.76953125
1731718773550.4375,425.78125,-426.26953125,-832.51953125,-474.12109375,459.9609375
1731718773554.3438,-65.91796875,-430.17578125,-1000,-1000,-365.234375
1731718773558.25,223.14453125,-369.140625,-839.84375,-891.11328125,-427.24609375
1731718773562.1562,567.87109375,-369.62890625,-541.9921875,420.8984375,-86.42578125
1731718773566.0625,704.58984375,-371.58203125,-793.45703125,47.36328125,463.8671875
1731718773569.9688,255.37109375,-398.92578125,-1000,-1000,286.62109375
1731718773573.875,189.94140625,-415.0390625,-817.87109375,-1000,121.09375
1731718773577.7812,85.9375,-425.78125,-572.265625,313.96484375,-155.76171875
1731718773581.6875,-25.390625,-437.98828125,-820.3125,999.51171875,-197.265625
1731718773585.5938,83.0078125,-396.484375,-1000,-526.85546875,148.92578125
1731718773589.5,491.2109375,-374.51171875,-743.65234375,-1000,690.4296875
1731718773593.4062,342.7734375,-376.953125,-442.3828125,-268.5546875,358.88671875
1731718773597.3125,-216.796875,-447.265625,-779.78515625,775.87890625,-255.37109375
1731718773601.2188,374.0234375,-462.40234375,-1000,-164.55078125,453.125
1731718773605.125,736.81640625,-385.7421875,-861.81640625,-1000,714.35546875
1731718773609.0312,142.08984375,-384.765625,-627.44140625,-794.921875,22.94921875
1731718773612.9375,-115.72265625,-438.96484375,-551.26953125,806.15234375,2.44140625
1731718773616.8438,198.73046875,-464.35546875,-895.5078125,825.68359375,499.0234375
1731718773620.75,458.49609375,-441.40625,-1000,-905.2734375,455.56640625
1731718773624.6562,-165.52734375,-417.96875,-845.21484375,-1000,-424.31640625
1731718773628.5625,-647.4609375,-438.96484375,-696.2890625,677.734375,-666.9921875
1731718773632.4688,135.25390625,-425.78125,-895.99609375,987.3046875,219.7265625
1731718773636.375,912.109375,-385.25390625,-831.54296875,-643.5546875,889.6484375
1731718773640.2812,-61.5234375,-421.38671875,-819.82421875,-1000,-144.04296875
1731718773644.1875,-629.39453125,-449.70703125,-770.5078125,270.01953125,-854.4921875
1731718773648.0938,207.03125,-431.640625,-815.4296875,999.51171875,9.765625
1731718773652,372.0703125,-416.9921875,-1000,-431.15234375,399.90234375
1731718773655.9062,-78.125,-401.3671875,-847.16796875,-1000,106.93359375
1731718773659.8125,-71.77734375,-406.73828125,-567.3828125,-534.66796875,-72.75390625
1731718773663.7188,631.34765625,-423.828125,-492.1875,948.73046875,525.390625
1731718773667.625,976.5625,-405.76171875,-666.9921875,412.109375,999.51171875
1731718773671.5312,121.09375,-397.94921875,-990.72265625,-1000,-9.27734375
1731718773675.4375,-388.18359375,-378.41796875,-854.4921875,-901.3671875,-747.0703125
1731718773679.3438,389.16015625,-377.9296875,-523.92578125,620.1171875,221.19140625
1731718773683.25,430.17578125,-431.15234375,-851.5625,159.66796875,489.2578125
1731718773687.1562,-365.234375,-433.59375,-1000,-1000,-225.09765625
1731718773691.0625,-445.80078125,-417.48046875,-936.5234375,-994.62890625,-537.109375
1731718773694.9688,55.17578125,-396.97265625,-638.671875,386.71875,-254.39453125
1731718773698.875,114.2578125,-376.46484375,-839.35546875,-154.296875,51.26953125
1731718773702.7812,212.890625,-402.83203125,-1000,-1000,328.125
1731718773706.6875,427.24609375,-374.51171875,-845.21484375,-1000,438.4765625
1731718773710.5938,362.79296875,-364.74609375,-551.7578125,-442.87109375,213.8671875
1731718773714.5,130.37109375,-407.2265625,-764.16015625,256.34765625,34.66796875
1731718773718.4062,140.13671875,-400.87890625,-1000,-846.19140625,360.3515625
1731718773722.3125,184.5703125,-375,-904.296875,-1000,441.40625
1731718773726.2188,480.95703125,-335.9375,-526.85546875,-732.91015625,475.09765625
1731718773730.125,82.03125,-376.46484375,-688.4765625,144.04296875,-7.32421875
1731718773734.0312,-156.25,-418.45703125,-1000,-711.42578125,-182.12890625
1731718773737.9375,311.03515625,-365.72265625,-965.8203125,-1000,307.6171875
1731718773741.8438,446.77734375,-336.9140625,-662.59765625,-914.55078125,452.63671875
1731718773745.75,-222.16796875,-383.30078125,-685.546875,-451.66015625,-270.01953125
1731718773749.6562,311.5234375,-387.20703125,-993.65234375,-750.48828125,234.375
1731718773753.5625,999.51171875,-357.91015625,-961.42578125,-1000,984.86328125
1731718773757.4688,726.07421875,-319.3359375,-652.83203125,-1000,583.49609375
1731718773761.375,-165.52734375,-359.375,-677.24609375,-664.55078125,-533.69140625
1731718773765.2812,-61.5234375,-383.7890625,-936.03515625,-724.609375,-319.82421875
1731718773769.1875,463.37890625,-374.0234375,-1000,-1000,422.8515625
1731718773773.0938,42.96875,-375.9765625,-952.1484375,-1000,-97.65625
1731718773777,-82.51953125,-360.83984375,-737.79296875,-922.36328125,-514.6484375
1731718773780.9062,149.90234375,-377.9296875,-847.65625,-874.51171875,-219.23828125
1731718773784.8125,756.8359375,-371.09375,-1000,-937.98828125,666.50390625
1731718773788.7188,324.70703125,-361.81640625,-997.0703125,-1000,141.11328125
1731718773792.625,-416.9921875,-385.25390625,-896.484375,-824.70703125,-785.64453125
1731718773796.5312,249.0234375,-399.4140625,-678.22265625,412.109375,-15.13671875
1731718773800.4375,924.8046875,-372.55859375,-752.44140625,-446.77734375,888.671875
1731718773804.3438,229.98046875,-378.41796875,-986.328125,-1000,235.3515625
1731718773808.25,-465.33203125,-380.859375,-953.61328125,-807.6171875,-729.00390625
1731718773812.1562,0.48828125,-409.66796875,-675.78125,497.0703125,-364.74609375
1731718773816.0625,569.82421875,-403.80859375,-852.5390625,-247.0703125,392.578125
1731718773819.9688,254.8828125,-414.0625,-1000,-1000,50.78125
1731718773823.875,-156.25,-397.94921875,-978.02734375,-1000,-604.4921875
1731718773827.7812,-148.92578125,-389.6484375,-658.69140625,324.21875,-457.51953125
1731718773831.6875,102.5390625,-426.7578125,-740.72265625,997.0703125,491.69921875
1731718773835.5938,215.8203125,-429.6875,-1000,-606.93359375,632.32421875
1731718773839.5,-143.5546875,-428.7109375,-1000,-1000,-329.1015625
1731718773843.4062,133.30078125,-409.66796875,-599.609375,-130.859375,-56.640625
1731718773847.3125,717.28515625,-417.96875,-443.84765625,999.51171875,866.2109375
1731718773851.2188,225.5859375,-445.80078125,-936.03515625,241.69921875,465.33203125
1731718773855.125,-354.98046875,-433.10546875,-1000,-1000,-266.11328125
1731718773859.0312,90.8203125,-412.59765625,-633.7890625,-658.203125,104.00390625
1731718773862.9375,361.328125,-437.5,-457.51953125,919.921875,415.52734375
1731718773866.8438,-83.49609375,-467.7734375,-936.03515625,917.48046875,42.96875
1731718773870.75,-39.55078125,-442.87109375,-1000,-757.8125,13.671875
1731718773874.6562,353.02734375,-395.01953125,-662.59765625,-1000,222.65625
1731718773878.5625,-186.03515625,-430.17578125,-542.96875,678.7109375,-165.0390625
1731718773882.4688,-470.703125,-462.890625,-907.2265625,999.51171875,-169.43359375
1731718773886.375,116.69921875,-447.265625,-967.28515625,-666.015625,313.96484375
1731718773890.2812,700.1953125,-408.69140625,-578.125,-937.5,774.4140625
1731718773894.1875,414.0625,-404.78515625,-296.38671875,587.40234375,461.42578125
1731718773898.0938,150.390625,-437.5,-638.18359375,999.51171875,295.8984375
1731718773902,506.34765625,-446.77734375,-935.05859375,-10.25390625,687.01171875
1731718773905.9062,534.1796875,-427.734375,-727.5390625,-1000,493.1640625
1731718773909.8125,-343.75,-434.5703125,-618.1640625,57.12890625,-488.76953125
1731718773913.7188,-582.51953125,-458.0078125,-750.48828125,999.51171875,-595.21484375
1731718773917.625,276.85546875,-448.2421875,-933.59375,752.44140625,342.7734375
1731718773921.5312,732.91015625,-405.76171875,-734.86328125,-836.9140625,704.58984375
1731718773925.4375,-272.4609375,-425.78125,-630.37109375,-816.40625,-424.8046875
1731718773929.3438,-726.07421875,-477.5390625,-657.2265625,908.69140625,-690.4296875
1731718773933.25,72.75390625,-466.796875,-907.71484375,968.75,318.359375
1731718773937.1562,421.38671875,-446.77734375,-943.84765625,-701.66015625,704.1015625
1731718773941.0625,-102.05078125,-435.546875,-693.359375,-1000,65.91796875
1731718773944.9688,-415.0390625,-457.51953125,-535.64453125,651.85546875,-363.76953125
1731718773948.875,299.31640625,-479.00390625,-714.35546875,999.51171875,440.4296875
1731718773952.7812,521.97265625,-463.8671875,-975.5859375,-506.34765625,486.328125
1731718773956.6875,-378.90625,-447.265625,-984.86328125,-1000,-595.703125
1731718773960.5938,-534.66796875,-434.5703125,-681.15234375,323.2421875,-767.578125
1731718773964.5,539.55078125,-423.828125,-603.515625,999.51171875,390.625
1731718773968.4062,684.5703125,-445.3125,-931.15234375,11.71875,475.09765625
1731718773972.3125,-77.63671875,-449.70703125,-1000,-1000,-475.09765625
1731718773976.2188,-245.60546875,-422.36328125,-803.7109375,-619.140625,-687.98828125
1731718773980.125,666.50390625,-414.0625,-438.4765625,951.66015625,526.85546875
1731718773984.0312,930.6640625,-423.33984375,-688.96484375,666.9921875,999.51171875
1731718773987.9375,283.69140625,-428.7109375,-959.9609375,-941.89453125,333.49609375
1731718773991.8438,143.5546875,-416.50390625,-702.63671875,-992.67578125,-202.1484375
1731718773995.75,782.2265625,-397.94921875,-301.26953125,666.015625,641.6015625
1731718773999.6562,445.80078125,-422.36328125,-702.1484375,998.53515625,648.92578125
1731718774003.5625,-201.66015625,-438.4765625,-1000,-694.3359375,-215.33203125
1731718774007.4688,88.37890625,-395.01953125,-798.33984375,-1000,-172.36328125
1731718774011.375,88.37890625,-400.390625,-524.90234375,532.71484375,-5.859375
1731718774015.2812,-382.32421875,-445.80078125,-853.515625,999.51171875,-180.17578125
1731718774019.1875,-307.6171875,-453.125,-1000,-565.91796875,-171.38671875
1731718774023.0938,-260.25390625,-414.55078125,-922.36328125,-1000,-143.06640625
1731718774027,-535.15625,-397.94921875,-660.64453125,-240.234375,-463.37890625
1731718774030.9062,96.6796875,-420.41015625,-642.578125,999.51171875,37.59765625
1731718774034.8125,425.78125,-442.3828125,-977.5390625,154.296875,671.875
1731718774038.7188,330.56640625,-418.45703125,-844.23828125,-1000,682.12890625
1731718774042.625,507.32421875,-386.71875,-419.921875,-775.390625,513.671875
1731718774046.5312,-419.43359375,-418.9453125,-612.79296875,836.42578125,-316.89453125
1731718774050.4375,-474.12109375,-450.1953125,-972.16796875,848.14453125,-90.8203125
1731718774054.3438,160.15625,-412.59765625,-968.75,-870.60546875,310.546875
1731718774058.25,-446.77734375,-403.3203125,-851.5625,-1000,-540.0390625
1731718774062.1562,-570.80078125,-435.546875,-695.80078125,672.36328125,-833.984375
1731718774066.0625,479.4921875,-428.22265625,-839.35546875,999.51171875,304.19921875
1731718774069.9688,833.49609375,-423.33984375,-953.61328125,-706.54296875,680.17578125
1731718774073.875,-52.24609375,-415.0390625,-871.09375,-1000,-381.8359375
1731718774077.7812,-124.0234375,-412.59765625,-534.66796875,517.578125,-361.328125
1731718774081.6875,602.5390625,-418.9453125,-617.1875,999.51171875,484.375
1731718774085.5938,999.0234375,-408.69140625,-722.16796875,-27.34375,990.234375
1731718774089.5,482.91015625,-407.2265625,-623.53515625,-1000,410.15625
1731718774093.4062,-458.0078125,-421.875,-632.32421875,41.015625,-784.66796875
1731718774097.3125,-45.41015625,-450.1953125,-694.82421875,999.51171875,-396.484375
1731718774101.2188,445.80078125,-444.82421875,-950.68359375,659.66796875,313.96484375
1731718774105.125,15.13671875,-435.546875,-1000,-926.7578125,-298.828125
1731718774109.0312,-403.80859375,-425.78125,-825.1953125,-768.06640625,-937.5
1731718774112.9375,-45.41015625,-422.36328125,-618.65234375,918.9453125,-356.93359375
1731718774116.8438,334.47265625,-461.9140625,-896.97265625,965.33203125,250.9765625
1731718774120.75,107.91015625,-447.75390625,-1000,-707.03125,-9.27734375
1731718774124.6562,-160.15625,-426.7578125,-720.21484375,-1000,-140.625
1731718774128.5625,90.33203125,-433.59375,-350.5859375,652.34375,422.36328125
1731718774132.4688,448.73046875,-449.21875,-628.90625,999.51171875,867.1875
1731718774136.375,-72.265625,-474.609375,-1000,-468.75,225.5859375
1731718774140.2812,-640.625,-463.37890625,-919.43359375,-1000,-546.875
1731718774144.1875,86.42578125,-427.24609375,-383.7890625,529.296875,136.71875
1731718774148.0938,791.50390625,-412.59765625,-356.4453125,999.51171875,892.578125
1731718774152,143.5546875,-454.58984375,-981.4453125,374.51171875,155.76171875
1731718774155.9062,-206.54296875,-451.171875,-989.2578125,-950.1953125,-381.8359375
1731718774159.8125,285.64453125,-401.85546875,-409.66796875,166.50390625,341.30859375
1731718774163.7188,238.28125,-452.1484375,-479.4921875,999.51171875,279.78515625
1731718774167.625,-48.828125,-480.95703125,-1000,759.27734375,-99.12109375
1731718774171.5312,315.91796875,-434.08203125,-880.859375,-497.0703125,370.1171875
1731718774175.4375,488.76953125,-412.59765625,-455.56640625,136.23046875,475.5859375
1731718774179.3438,188.96484375,-437.5,-368.1640625,999.51171875,155.2734375
1731718774183.25,213.37890625,-465.8203125,-839.35546875,857.91015625,152.34375
1731718774187.1562,396.484375,-455.56640625,-999.0234375,-445.3125,144.53125
1731718774191.0625,787.109375,-409.66796875,-476.5625,191.40625,697.75390625
1731718774194.9688,187.01171875,-420.8984375,-310.546875,999.51171875,105.46875
1731718774198.875,-71.77734375,-469.7265625,-815.4296875,999.51171875,-405.76171875
1731718774202.7812,532.71484375,-465.8203125,-988.76953125,256.8359375,238.76953125
1731718774206.6875,257.8125,-437.98828125,-733.3984375,-184.08203125,129.8828125
1731718774210.5938,-507.32421875,-445.80078125,-583.0078125,848.14453125,-677.24609375
1731718774214.5,-215.8203125,-474.609375,-724.12109375,999.51171875,-421.38671875
1731718774218.4062,619.62890625,-463.37890625,-854.4921875,690.91796875,605.95703125
1731718774222.3125,617.67578125,-442.3828125,-709.9609375,-136.71875,521.97265625
1731718774226.2188,-224.609375,-454.1015625,-564.94140625,666.9921875,-458.984375
1731718774230.125,-643.5546875,-472.65625,-623.046875,999.51171875,-516.6015625
1731718774234.0312,328.61328125,-479.98046875,-796.875,808.59375,628.41796875
1731718774237.9375,684.08203125,-452.63671875,-681.640625,-496.09375,813.96484375
1731718774241.8438,-456.54296875,-434.08203125,-626.46484375,113.76953125,-466.796875
1731718774245.75,-637.6953125,-476.07421875,-578.125,999.51171875,-667.96875
1731718774249.6562,441.40625,-466.30859375,-682.6171875,963.37890625,562.5
1731718774253.5625,167.96875,-468.26171875,-907.71484375,-126.953125,401.3671875
1731718774257.4688,-837.40234375,-473.6328125,-882.32421875,230.46875,-637.6953125
1731718774261.375,-694.82421875,-458.49609375,-555.17578125,999.51171875,-578.125
1731718774265.2812,333.49609375,-451.171875,-557.6171875,999.51171875,679.19921875
1731718774269.1875,548.828125,-453.125,-838.8671875,495.1171875,932.12890625
1731718774273.0938,-258.30078125,-460.9375,-838.37890625,-220.21484375,-254.8828125
1731718774277,-313.96484375,-428.7109375,-536.62109375,758.7890625,-530.76171875
1731718774280.9062,322.75390625,-442.3828125,-529.78515625,999.51171875,284.66796875
1731718774284.8125,124.0234375,-487.79296875,-945.3125,690.91796875,292.96875
1731718774288.7188,-355.46875,-468.26171875,-1000,-97.16796875,-339.35546875
1731718774292.625,-213.8671875,-428.7109375,-600.09765625,684.5703125,-304.6875
1731718774296.5312,678.22265625,-415.0390625,-189.453125,999.51171875,708.49609375
1731718774300.4375,398.92578125,-453.125,-742.1875,824.21875,521.484375
1731718774304.3438,-338.8671875,-466.30859375,-1000,-309.5703125,-189.453125
1731718774308.25,-301.7578125,-439.453125,-677.24609375,408.203125,-188.96484375
1731718774312.1562,348.6328125,-444.82421875,-353.515625,999.51171875,242.1875
1731718774316.0625,697.75390625,-453.61328125,-668.9453125,994.140625,540.0390625
1731718774319.9688,111.328125,-472.16796875,-990.234375,-104.98046875,272.4609375
1731718774323.875,-133.7890625,-453.125,-724.12109375,-52.24609375,133.7890625
1731718774327.7812,-378.90625,-441.89453125,-479.98046875,999.51171875,-118.1640625
1731718774331.6875,-298.828125,-469.7265625,-744.62890625,999.51171875,-235.83984375
1731718774335.5938,229.98046875,-465.8203125,-1000,462.40234375,41.015625
1731718774339.5,768.5546875,-418.45703125,-684.08203125,-347.65625,613.76953125
1731718774343.4062,438.4765625,-389.6484375,-307.6171875,712.40234375,433.10546875
1731718774347.3125,-278.80859375,-455.078125,-629.8828125,999.51171875,-354.00390625
1731718774351.2188,271.484375,-472.65625,-965.33203125,812.01171875,125.9765625
1731718774355.125,741.2109375,-412.109375,-809.08203125,-752.9296875,578.125
1731718774359.0312,409.66796875,-403.3203125,-536.1328125,-733.88671875,-72.265625
1731718774362.9375,475.09765625,-423.33984375,-432.6171875,974.12109375,-106.4453125
1731718774366.8438,594.23828125,-450.68359375,-759.765625,949.70703125,576.66015625
1731718774370.75,381.34765625,-463.8671875,-892.578125,-698.73046875,457.51953125
1731718774374.6562,-170.41015625,-439.453125,-758.30078125,-1000,-551.26953125
1731718774378.5625,-464.84375,-438.96484375,-629.8828125,629.8828125,-841.30859375
1731718774382.4688,217.7734375,-431.15234375,-812.5,999.51171875,53.7109375
1731718774386.375,847.16796875,-398.4375,-748.53515625,-401.85546875,825.68359375
1731718774390.2812,-9.765625,-415.52734375,-700.68359375,-1000,-155.2734375
1731718774394.1875,-672.36328125,-442.3828125,-658.203125,432.6171875,-918.45703125
1731718774398.0938,90.8203125,-443.359375,-666.50390625,999.51171875,-0.48828125
1731718774402,637.6953125,-462.890625,-887.20703125,132.8125,639.16015625
1731718774405.9062,106.4453125,-441.89453125,-835.9375,-1000,162.59765625
1731718774409.8125,-470.703125,-425.78125,-528.80859375,-198.2421875,-194.82421875
1731718774413.7188,17.08984375,-437.98828125,-470.21484375,999.51171875,355.46875
1731718774417.625,469.23828125,-434.08203125,-854.4921875,832.03125,599.609375
1731718774421.5312,-282.71484375,-465.33203125,-1000,-778.80859375,-256.8359375
1731718774425.4375,-626.46484375,-413.57421875,-848.6328125,-910.15625,-847.65625
1731718774429.3438,203.125,-403.80859375,-439.94140625,833.0078125,214.84375
1731718774433.25,689.94140625,-451.66015625,-680.17578125,988.28125,863.28125
1731718774437.1562,54.6875,-409.1796875,-1000,-712.40234375,-144.04296875
1731718774441.0625,-547.8515625,-500,-940.4296875,-1000,-709.47265625
1731718774444.9688,-83.0078125,-390.13671875,-414.0625,614.74609375,32.71484375
1731718774448.875,201.66015625,-402.34375,-678.7109375,999.51171875,265.13671875
1731718774452.7812,261.23046875,-529.296875,-1000,-349.609375,235.3515625
1731718774456.6875,296.875,-377.44140625,-694.82421875,-1000,374.51171875
1731718774460.5938,599.609375,-467.7734375,-314.453125,447.265625,691.40625
1731718774464.5,387.6953125,-442.87109375,-564.453125,999.51171875,437.98828125
1731718774468.4062,170.41015625,-369.140625,-1000,284.1796875,106.93359375
1731718774472.3125,522.4609375,-414.0625,-868.1640625,-1000,192.87109375
1731718774476.2188,124.0234375,-360.3515625,-528.3203125,-723.6328125,-7.8125
1731718774480.125,-363.76953125,-437.98828125,-678.22265625,932.12890625,-422.8515625
1731718774484.0312,-89.35546875,-458.984375,-993.1640625,790.52734375,-186.03515625
1731718774487.9375,313.96484375,-420.8984375,-1000,-898.92578125,37.59765625
1731718774491.8438,-180.6640625,-407.2265625,-821.77734375,-1000,-471.19140625
1731718774495.75,-488.76953125,-370.60546875,-628.90625,677.734375,-561.5234375
1731718774499.6562,212.40234375,-425.29296875,-911.62109375,999.51171875,256.8359375
1731718774503.5625,823.2421875,-400.390625,-876.953125,-705.56640625,894.04296875
1731718774507.4688,665.52734375,-378.41796875,-525.87890625,-1000,625
1731718774511.375,-330.56640625,-421.875,-602.5390625,563.96484375,-505.859375
1731718774515.2812,-159.66796875,-412.109375,-882.8125,999.51171875,-311.03515625
1731718774519.1875,466.30859375,-410.15625,-1000,-317.3828125,510.25390625
1731718774523.0938,5.37109375,-391.11328125,-921.875,-1000,-205.56640625
1731718774527,-318.84765625,-412.59765625,-636.71875,230.46875,-648.92578125
1731718774530.9062,213.37890625,-423.828125,-556.15234375,999.51171875,199.21875
1731718774534.8125,755.859375,-425.29296875,-799.31640625,677.734375,812.01171875
1731718774538.7188,93.26171875,-448.2421875,-901.3671875,-656.25,55.6640625
1731718774542.625,-396.484375,-412.59765625,-648.4375,322.265625,-687.98828125
1731718774546.5312,290.52734375,-451.171875,-420.41015625,999.51171875,-13.671875
1731718774550.4375,884.27734375,-448.73046875,-607.91015625,867.1875,871.58203125
1731718774554.3438,319.82421875,-439.94140625,-874.0234375,892.578125,385.25390625
1731718774558.25,-594.7265625,-458.984375,-807.12890625,949.21875,-619.140625
1731718774562.1562,-374.0234375,-458.49609375,-475.09765625,978.515625,-380.37109375
1731718774566.0625,536.1328125,-476.5625,-634.27734375,961.9140625,585.44921875
1731718774569.9688,149.90234375,-493.1640625,-981.93359375,969.23828125,271.97265625
1731718774573.875,-511.71875,-501.953125,-867.1875,967.7734375,-470.21484375
1731718774577.7812,-398.4375,-487.3046875,-474.609375,967.7734375,-385.7421875
1731718774581.6875,130.37109375,-475.5859375,-558.59375,968.26171875,207.03125
1731718774585.5938,538.57421875,-495.60546875,-835.44921875,968.26171875,575.68359375
1731718774589.5,170.41015625,-487.79296875,-787.109375,968.26171875,33.203125
1731718774593.4062,348.6328125,-464.84375,-354.00390625,968.26171875,99.12109375
1731718774597.3125,937.98828125,-454.58984375,-121.09375,967.7734375,962.890625
1731718774601.2188,362.3046875,-500.9765625,-756.8359375,968.26171875,565.4296875
1731718774605.125,-104.4921875,-473.6328125,-960.44921875,976.07421875,-162.59765625
1731718774609.0312,124.51171875,-407.2265625,-509.27734375,922.36328125,83.984375
1731718774612.9375,-34.1796875,-441.40625,-425.29296875,999.51171875,134.765625
1731718774616.8438,-100.5859375,-478.02734375,-924.31640625,964.35546875,-78.61328125
1731718774620.75,3.41796875,-458.49609375,-1000,-121.58203125,49.31640625
1731718774624.6562,-210.44921875,-423.33984375,-674.31640625,416.50390625,-6.34765625
1731718774628.5625,-444.82421875,-437.01171875,-500,999.51171875,-320.3125
1731718774632.4688,-104.00390625,-437.5,-845.703125,999.51171875,-155.2734375
1731718774636.375,272.94921875,-420.41015625,-1000,-118.1640625,290.0390625
1731718774640.2812,581.54296875,-405.2734375,-682.12890625,-931.15234375,475.09765625
1731718774644.1875,404.296875,-395.5078125,-367.1875,542.48046875,174.8046875
1731718774648.0938,354.4921875,-412.59765625,-553.7109375,999.51171875,439.453125
1731718774652,669.43359375,-414.0625,-899.90234375,200.68359375,742.1875
1731718774655.9062,942.87109375,-375.48828125,-608.3984375,-1000,888.671875
1731718774659.8125,443.84765625,-344.7265625,-342.7734375,-498.53515625,185.05859375
1731718774663.7188,-244.140625,-415.0390625,-685.05859375,999.51171875,-521.484375
1731718774667.625,118.1640625,-450.68359375,-988.76953125,712.890625,163.57421875
1731718774671.5312,128.41796875,-353.02734375,-946.77734375,-917.96875,249.51171875
1731718774675.4375,-517.578125,-361.81640625,-796.38671875,-998.046875,-646.97265625
1731718774679.3438,-597.65625,-439.453125,-692.3828125,678.7109375,-692.87109375
1731718774683.25,255.859375,-402.83203125,-892.578125,884.27734375,315.91796875
1731718774687.1562,772.4609375,-393.5546875,-959.47265625,-721.19140625,782.2265625
1731718774691.0625,216.30859375,-400.87890625,-768.06640625,-1000,5.859375
1731718774694.9688,-431.640625,-385.25390625,-602.5390625,463.37890625,-537.59765625
1731718774698.875,253.41796875,-410.64453125,-755.859375,969.23828125,372.55859375
1731718774702.7812,816.40625,-385.25390625,-950.1953125,-586.9140625,728.02734375
1731718774706.6875,-156.25,-407.2265625,-1000,-1000,-458.49609375
1731718774710.5938,-567.3828125,-408.203125,-771.484375,-494.62890625,-901.85546875
1731718774714.5,496.58203125,-346.6796875,-549.8046875,852.5390625,435.05859375
1731718774718.4062,896.97265625,-369.62890625,-772.4609375,-222.65625,904.296875
1731718774722.3125,-329.58984375,-387.6953125,-1000,-1000,-305.17578125
1731718774726.2188,-800.78125,-372.0703125,-815.91796875,-708.984375,-777.34375
1731718774730.125,-207.51953125,-399.90234375,-657.71484375,99.609375,-141.11328125
1731718774734.0312,605.95703125,-390.13671875,-935.05859375,-755.37109375,469.23828125
1731718774737.9375,612.79296875,-381.34765625,-1000,-1000,211.42578125
1731718774741.8438,129.8828125,-354.4921875,-740.72265625,-925.29296875,-184.08203125
1731718774745.75,665.0390625,-337.40234375,-426.7578125,-922.36328125,545.41015625
1731718774749.6562,540.0390625,-372.0703125,-812.98828125,-970.21484375,402.83203125
1731718774753.5625,-251.953125,-388.18359375,-1000,-1000,-370.60546875
1731718774757.4688,-230.46875,-343.26171875,-915.52734375,-993.1640625,-309.5703125
1731718774761.375,674.8046875,-302.24609375,-444.3359375,-1000,617.1875
1731718774765.2812,391.6015625,-338.8671875,-741.69921875,-1000,224.609375
1731718774769.1875,-170.41015625,-373.53515625,-1000,-1000,-298.33984375
1731718774773.0938,-224.609375,-352.05078125,-966.796875,-1000,-230.46875
1731718774777,-722.16796875,-347.16796875,-837.40234375,-1000,-557.12890625
1731718774780.9062,-227.5390625,-357.91015625,-802.734375,-1000,-147.4609375
1731718774784.8125,423.828125,-355.95703125,-1000,-1000,403.80859375
1731718774788.7188,467.7734375,-318.84765625,-954.1015625,-1000,582.03125
1731718774792.625,583.984375,-284.66796875,-590.8203125,-1000,540.52734375
1731718774796.5312,-48.828125,-337.40234375,-721.6796875,-1000,-446.77734375
1731718774800.4375,31.25,-357.421875,-997.55859375,-1000,-326.66015625
1731718774804.3438,376.953125,-339.84375,-1000,-1000,356.4453125
1731718774808.25,-57.12890625,-290.0390625,-936.5234375,-1000,-380.859375
1731718774812.1562,-431.15234375,-322.75390625,-797.8515625,-1000,-954.58984375
1731718774816.0625,62.98828125,-371.58203125,-935.546875,-1000,-44.43359375
1731718774819.9688,722.16796875,-331.0546875,-990.234375,-1000,731.4453125
1731718774823.875,-86.9140625,-341.796875,-966.796875,-1000,-206.0546875
1731718774827.7812,-398.92578125,-342.7734375,-733.88671875,-1000,-516.11328125
1731718774831.6875,299.31640625,-351.5625,-786.1328125,-1000,317.3828125
1731718774835.5938,842.28515625,-346.19140625,-913.57421875,-1000,891.11328125
1731718774839.5,261.23046875,-323.73046875,-917.48046875,-1000,84.9609375
1731718774843.4062,-666.015625,-356.93359375,-902.83203125,-1000,-937.98828125
1731718774847.3125,-342.28515625,-378.41796875,-885.7421875,-1000,-456.0546875
1731718774851.2188,219.7265625,-387.6953125,-991.2109375,-986.328125,226.5625
1731718774855.125,-227.05078125,-388.18359375,-1000,-1000,-202.63671875
1731718774859.0312,-583.49609375,-359.86328125,-946.2890625,-978.02734375,-827.1484375
1731718774862.9375,-112.3046875,-366.2109375,-770.5078125,-763.18359375,-427.734375
1731718774866.8438,335.9375,-381.34765625,-916.50390625,-897.94921875,372.55859375
1731718774870.75,77.1484375,-395.99609375,-1000,-1000,162.109375
1731718774874.6562,-272.4609375,-382.8125,-859.86328125,-1000,-292.48046875
1731718774878.5625,126.953125,-373.53515625,-498.53515625,199.21875,159.66796875
1731718774882.4688,602.05078125,-394.53125,-713.8671875,736.328125,829.58984375
1731718774886.375,215.33203125,-416.015625,-1000,-711.42578125,346.6796875
1731718774890.2812,-239.74609375,-414.55078125,-1000,-1000,-542.48046875
1731718774894.1875,358.88671875,-375,-533.203125,51.7578125,60.05859375
1731718774898.0938,631.34765625,-396.484375,-513.18359375,999.51171875,750.48828125
1731718774902,-93.26171875,-451.66015625,-1000,-50.78125,156.73828125
1731718774905.9062,-412.59765625,-431.15234375,-1000,-1000,-318.84765625
1731718774909.8125,247.0703125,-396.97265625,-505.859375,-59.5703125,369.62890625
1731718774913.7188,219.7265625,-424.8046875,-449.70703125,999.51171875,475.5859375
1731718774917.625,-436.5234375,-476.5625,-982.91015625,753.41796875,54.19921875
1731718774921.5312,-45.8984375,-445.80078125,-887.20703125,-454.58984375,560.05859375
1731718774925.4375,-13.18359375,-409.1796875,-448.2421875,507.32421875,624.0234375
1731718774929.3438,-423.828125,-480.46875,-401.85546875,999.51171875,-14.16015625
1731718774933.25,65.91796875,-492.67578125,-772.94921875,879.39453125,280.2734375
1731718774937.1562,225.5859375,-479.98046875,-902.83203125,984.375,514.6484375
1731718774941.0625,-80.078125,-492.1875,-658.203125,968.26171875,114.2578125
1731718774944.9688,-641.11328125,-479.4921875,-421.875,968.26171875,-365.234375
1731718774948.875,-598.6328125,-504.39453125,-684.08203125,968.26171875,-165.52734375
1731718774952.7812,177.24609375,-507.32421875,-895.5078125,967.7734375,397.94921875
1731718774956.6875,883.30078125,-439.94140625,-406.73828125,967.7734375,903.80859375
1731718774960.5938,87.890625,-474.609375,-227.5390625,967.7734375,111.81640625
1731718774964.5,-526.85546875,-518.06640625,-586.9140625,968.26171875,-308.59375
1731718774968.4062,288.57421875,-501.953125,-729.4921875,968.26171875,643.5546875
1731718774972.3125,497.55859375,-488.76953125,-569.3359375,967.7734375,573.73046875
1731718774976.2188,-259.27734375,-467.28515625,-416.015625,968.26171875,-378.90625
1731718774980.125,-429.6875,-524.90234375,-532.71484375,967.7734375,-512.6953125
1731718774984.0312,563.4765625,-537.109375,-716.30859375,967.7734375,536.62109375
1731718774987.9375,806.15234375,-479.4921875,-532.71484375,967.7734375,746.09375
1731718774991.8438,142.08984375,-474.609375,-413.0859375,967.7734375,-187.5
1731718774995.75,-87.40234375,-498.046875,-358.3984375,968.26171875,-472.16796875
1731718774999.6562,646.484375,-499.0234375,-508.7890625,967.7734375,518.06640625
1731718775003.5625,598.14453125,-514.6484375,-750.9765625,968.26171875,447.75390625
1731718775007.4688,-362.79296875,-521.484375,-732.91015625,968.26171875,-600.09765625
1731718775011.375,-406.73828125,-513.671875,-422.8515625,968.26171875,-622.0703125
1731718775015.2812,671.38671875,-491.69921875,-393.06640625,968.26171875,629.8828125
1731718775019.1875,901.3671875,-489.2578125,-669.921875,967.7734375,934.08203125
1731718775023.0938,-23.4375,-497.55859375,-765.13671875,967.7734375,-205.56640625
1731718775027,-165.0390625,-470.21484375,-430.6640625,967.7734375,-470.703125
1731718775030.9062,662.59765625,-480.46875,-237.3046875,968.26171875,624.51171875
1731718775034.8125,258.30078125,-518.06640625,-736.328125,968.26171875,553.7109375
1731718775038.7188,-366.69921875,-482.91015625,-893.5546875,968.26171875,-273.4375
1731718775042.625,-224.609375,-464.35546875,-539.55078125,968.26171875,-360.3515625
1731718775046.5312,735.3515625,-453.61328125,-150.390625,967.7734375,703.61328125
1731718775050.4375,695.80078125,-470.21484375,-603.515625,968.26171875,794.921875
1731718775054.3438,-147.94921875,-495.1171875,-1000,967.7734375,-142.08984375
1731718775058.25,-5.37109375,-447.265625,-656.73828125,967.7734375,-191.40625
1731718775062.1562,847.65625,-393.06640625,-59.08203125,967.7734375,804.6875
1731718775066.0625,847.65625,-423.828125,-458.0078125,968.26171875,787.109375
1731718775069.9688,329.1015625,-474.609375,-994.140625,967.7734375,61.5234375
1731718775073.875,316.40625,-445.3125,-689.453125,967.7734375,42.48046875
1731718775077.7812,165.52734375,-431.15234375,-351.5625,968.26171875,-11.23046875
1731718775081.6875,-146.484375,-462.40234375,-684.5703125,968.26171875,-251.953125
1731718775085.5938,103.02734375,-457.03125,-1000,968.26171875,17.578125
1731718775089.5,259.27734375,-446.77734375,-738.76953125,968.75,447.265625
1731718775093.4062,-444.3359375,-435.05859375,-476.07421875,965.33203125,-213.37890625
1731718775097.3125,-588.8671875,-468.26171875,-620.60546875,974.12109375,-576.66015625
1731718775101.2188,-66.40625,-479.00390625,-950.68359375,951.171875,78.125
1731718775105.125,653.80859375,-419.43359375,-708.49609375,938.4765625,768.06640625
1731718775109.0312,487.3046875,-398.4375,-350.5859375,970.703125,406.73828125
1731718775112.9375,174.31640625,-421.38671875,-337.890625,968.26171875,-31.73828125
1731718775116.8438,514.16015625,-462.890625,-681.640625,967.28515625,479.4921875
1731718775120.75,771.97265625,-442.3828125,-671.875,967.7734375,821.77734375
1731718775124.6562,-133.7890625,-422.36328125,-549.8046875,968.26171875,-171.875
1731718775128.5625,-725.5859375,-454.58984375,-562.98828125,968.26171875,-903.80859375
1731718775132.4688,168.45703125,-483.3984375,-738.76953125,967.7734375,-112.79296875
1731718775136.375,817.3828125,-417.48046875,-661.62109375,967.7734375,774.90234375
1731718775140.2812,-304.19921875,-441.40625,-699.21875,967.7734375,-165.0390625
1731718775144.1875,-916.50390625,-536.62109375,-637.20703125,967.7734375,-937.98828125
1731718775148.0938,-179.6875,-406.25,-527.83203125,967.7734375,-102.5390625
1731718775152,108.3984375,-526.3671875,-931.640625,968.26171875,256.8359375
1731718775155.9062,166.015625,-472.16796875,-759.27734375,967.7734375,179.19921875
1731718775159.8125,44.921875,-333.0078125,-333.49609375,967.7734375,24.4140625
1731718775163.7188,235.83984375,-598.6328125,-442.87109375,968.26171875,231.93359375
1731718775167.625,971.19140625,-412.109375,-367.1875,967.7734375,986.328125
1731718775171.5312,246.09375,-353.02734375,-664.0625,967.7734375,110.3515625
1731718775175.4375,-647.4609375,-617.1875,-889.16015625,967.7734375,-941.89453125
1731718775179.3438,-127.44140625,-446.77734375,-345.703125,967.7734375,-217.28515625
1731718775183.25,40.0390625,-381.34765625,-638.18359375,968.26171875,220.21484375
1731718775187.1562,-432.6171875,-583.49609375,-1000,968.26171875,-317.3828125
1731718775191.0625,-581.0546875,-502.44140625,-787.109375,968.26171875,-551.7578125
1731718775194.9688,-171.38671875,-370.1171875,-279.78515625,967.7734375,-192.3828125
1731718775198.875,154.78515625,-441.89453125,-665.52734375,969.23828125,-51.26953125
1731718775202.7812,139.6484375,-547.8515625,-1000,963.8671875,154.78515625
1731718775206.6875,85.9375,-423.828125,-608.3984375,979.4921875,399.90234375
1731718775210.5938,705.56640625,-337.890625,-76.66015625,897.94921875,798.828125
1731718775214.5,607.91015625,-498.53515625,-471.19140625,999.51171875,403.3203125
1731718775218.4062,226.5625,-500,-1000,778.80859375,-151.85546875
1731718775222.3125,548.828125,-354.98046875,-718.26171875,-350.09765625,195.3125
1731718775226.2188,427.24609375,-381.8359375,-454.58984375,457.03125,115.72265625
1731718775230.125,-119.62890625,-476.07421875,-616.69921875,999.51171875,-490.234375
1731718775234.0312,17.08984375,-412.109375,-935.05859375,845.21484375,-184.08203125
1731718775237.9375,48.33984375,-408.203125,-959.47265625,-640.625,80.078125
1731718775241.8438,-541.50390625,-477.5390625,-833.49609375,-1000,-530.76171875
1731718775245.75,-450.68359375,-434.08203125,-631.34765625,729.4921875,-742.67578125
1731718775249.6562,372.55859375,-343.75,-752.9296875,999.51171875,221.19140625
1731718775253.5625,709.47265625,-447.75390625,-956.0546875,-631.8359375,767.578125
1731718775257.4688,266.6015625,-454.58984375,-722.16796875,-1000,50.78125
1731718775261.375,-365.72265625,-329.58984375,-479.00390625,589.84375,-666.9921875
1731718775265.2812,-381.8359375,-468.26171875,-850.5859375,999.51171875,-395.5078125
1731718775269.1875,513.671875,-467.7734375,-937.5,-96.19140625,607.421875
1731718775273.0938,340.33203125,-332.51953125,-612.79296875,-1000,380.37109375
1731718775277,-827.1484375,-421.38671875,-612.79296875,-50.78125,-748.53515625
1731718775280.9062,-227.05078125,-461.9140625,-677.24609375,999.51171875,-62.01171875
1731718775284.8125,789.55078125,-412.59765625,-790.52734375,624.0234375,823.73046875
1731718775288.7188,199.70703125,-404.296875,-878.41796875,-943.84765625,154.78515625
1731718775292.625,-478.515625,-403.80859375,-786.62109375,-896.484375,-748.53515625
1731718775296.5312,178.22265625,-427.24609375,-566.89453125,800.29296875,-139.16015625
1731718775300.4375,752.9296875,-387.20703125,-723.14453125,977.5390625,886.23046875
1731718775304.3438,83.0078125,-437.5,-1000,-727.05078125,233.3984375
1731718775308.25,-753.41796875,-450.68359375,-950.68359375,-1000,-849.609375
1731718775312.1562,-468.26171875,-368.1640625,-580.56640625,682.12890625,-512.20703125
1731718775316.0625,708.984375,-399.4140625,-595.21484375,999.51171875,688.4765625
1731718775319.9688,498.046875,-406.25,-968.75,-654.78515625,283.69140625
1731718775323.875,-154.296875,-407.71484375,-1000,-1000,-770.5078125
1731718775327.7812,-95.21484375,-425.78125,-638.18359375,327.1484375,-594.7265625
1731718775331.6875,220.21484375,-415.0390625,-668.45703125,999.51171875,200.1953125
1731718775335.5938,229.4921875,-427.24609375,-998.046875,-185.05859375,212.890625
1731718775339.5,168.45703125,-380.37109375,-873.53515625,-1000,9.27734375
1731718775343.4062,246.09375,-396.97265625,-454.1015625,-309.5703125,135.7421875
1731718775347.3125,543.9453125,-412.109375,-343.75,999.51171875,757.32421875
1731718775351.2188,8.30078125,-414.0625,-893.5546875,737.79296875,428.7109375
1731718775355.125,-502.9296875,-467.28515625,-1000,-930.6640625,-316.89453125
1731718775359.0312,-193.84765625,-386.71875,-611.328125,-812.98828125,-143.06640625
1731718775362.9375,-171.875,-394.53125,-498.046875,886.71875,-47.8515625
1731718775366.8438,-215.8203125,-466.30859375,-931.640625,974.609375,-88.37890625
1731718775370.75,-381.8359375,-443.84765625,-1000,-714.84375,-71.77734375
1731718775374.6562,114.74609375,-416.015625,-632.8125,-1000,425.78125
1731718775378.5625,413.57421875,-388.18359375,-324.70703125,627.44140625,401.85546875
1731718775382.4688,-122.55859375,-439.94140625,-827.63671875,999.51171875,-166.9921875
1731718775386.375,303.22265625,-448.2421875,-1000,-157.2265625,53.22265625
1731718775390.2812,842.7734375,-367.1875,-569.82421875,-203.61328125,710.9375
1731718775394.1875,347.65625,-412.109375,-273.4375,999.0234375,477.05078125
1731718775398.0938,120.60546875,-439.94140625,-527.34375,999.51171875,177.734375
1731718775402,395.99609375,-433.10546875,-886.23046875,826.66015625,467.28515625
1731718775405.9062,321.2890625,-446.77734375,-783.69140625,688.4765625,316.40625
1731718775409.8125,-281.73828125,-404.78515625,-551.7578125,960.9375,-516.11328125
1731718775413.7188,-488.28125,-468.26171875,-608.3984375,983.88671875,-604.4921875
1731718775417.625,106.93359375,-476.07421875,-888.671875,954.58984375,238.76953125
1731718775421.5312,299.31640625,-445.80078125,-851.5625,969.7265625,355.46875
1731718775425.4375,-527.83203125,-465.33203125,-658.69140625,968.26171875,-501.953125
1731718775429.3438,-668.9453125,-453.125,-498.046875,968.26171875,-589.84375
1731718775433.25,22.4609375,-503.90625,-768.5546875,968.26171875,218.26171875
1731718775437.1562,971.19140625,-455.56640625,-555.17578125,968.26171875,999.51171875
1731718775441.0625,784.1796875,-388.671875,-205.078125,968.26171875,794.921875
1731718775444.9688,-367.1875,-494.62890625,-413.57421875,967.7734375,-404.78515625
1731718775448.875,149.90234375,-460.9375,-625,967.7734375,63.4765625
1731718775452.7812,527.83203125,-474.12109375,-774.4140625,967.7734375,688.96484375
1731718775456.6875,-373.53515625,-507.8125,-778.3203125,968.26171875,-223.14453125
1731718775460.5938,-703.61328125,-464.35546875,-538.57421875,967.7734375,-842.7734375
1731718775464.5,447.265625,-478.515625,-370.60546875,967.7734375,294.921875
1731718775468.4062,732.91015625,-462.40234375,-594.7265625,967.7734375,832.51953125
1731718775472.3125,-292.96875,-505.37109375,-833.984375,968.26171875,-303.7109375
1731718775476.2188,-437.01171875,-475.5859375,-569.3359375,968.26171875,-755.37109375
1731718775480.125,-91.30859375,-496.58203125,-383.7890625,967.7734375,-160.64453125
1731718775484.0312,328.61328125,-533.203125,-698.73046875,968.26171875,592.7734375
1731718775487.9375,337.890625,-521.484375,-770.5078125,968.26171875,493.1640625
1731718775491.8438,-125.48828125,-503.41796875,-530.2734375,967.7734375,-220.703125
1731718775495.75,163.57421875,-480.46875,-269.04296875,967.7734375,12.6953125
1731718775499.6562,349.609375,-505.37109375,-624.0234375,967.7734375,322.75390625
1731718775503.5625,-122.55859375,-515.625,-954.58984375,967.7734375,-39.0625
1731718775507.4688,-337.890625,-469.23828125,-669.921875,968.26171875,-192.3828125
1731718775511.375,499.51171875,-445.80078125,-148.4375,968.26171875,588.8671875
1731718775515.2812,222.65625,-488.76953125,-506.8359375,968.26171875,306.15234375
1731718775519.1875,-297.8515625,-507.8125,-1000,968.26171875,-183.10546875
1731718775523.0938,185.546875,-473.14453125,-784.1796875,984.375,27.83203125
1731718775527,642.08984375,-415.0390625,-241.69921875,910.15625,478.02734375
1731718775530.9062,395.5078125,-440.91796875,-379.39453125,999.51171875,310.05859375
1731718775534.8125,327.1484375,-469.23828125,-851.5625,930.6640625,428.7109375
1731718775538.7188,500.48828125,-423.828125,-754.8828125,-689.94140625,583.0078125
1731718775542.625,302.24609375,-366.69921875,-446.77734375,-817.87109375,103.515625
1731718775546.5312,-184.5703125,-380.37109375,-564.453125,986.81640625,-557.6171875
1731718775550.4375,125,-393.5546875,-953.61328125,781.73828125,-289.55078125
1731718775554.3438,704.1015625,-343.26171875,-921.875,-816.89453125,438.4765625
1731718775558.25,235.83984375,-314.453125,-760.25390625,-1000,-175.78125
1731718775562.1562,-501.953125,-350.5859375,-745.1171875,-709.9609375,-1000
1731718775566.0625,-42.96875,-363.76953125,-935.546875,-896.97265625,-370.60546875
1731718775569.9688,793.9453125,-305.6640625,-920.41015625,-1000,694.3359375
1731718775573.875,273.92578125,-316.89453125,-840.33203125,-984.375,27.83203125
1731718775577.7812,-115.72265625,-347.16796875,-677.24609375,-1000,-619.62890625
1731718775581.6875,393.06640625,-301.7578125,-723.14453125,-1000,189.94140625
1731718775585.5938,881.8359375,-355.95703125,-908.69140625,-1000,876.953125
1731718775589.5,281.73828125,-258.30078125,-855.95703125,-1000,105.46875
1731718775593.4062,-602.05078125,-296.875,-861.328125,-1000,-1000
1731718775597.3125,-207.51953125,-362.3046875,-895.01953125,-1000,-676.26953125
1731718775601.2188,283.203125,-329.1015625,-985.83984375,-1000,34.66796875
1731718775605.125,-255.859375,-403.80859375,-1000,-1000,-350.5859375
1731718775609.0312,-807.6171875,-324.21875,-885.7421875,-1000,-951.171875
1731718775612.9375,-444.82421875,-348.6328125,-707.03125,-1000,-488.76953125
1731718775616.8438,114.2578125,-407.71484375,-907.2265625,-981.4453125,290.52734375
1731718775620.75,-290.52734375,-385.7421875,-1000,-992.67578125,9.27734375
1731718775624.6562,-608.88671875,-414.0625,-882.32421875,-1000,-278.3203125
1731718775628.5625,-160.15625,-366.2109375,-473.6328125,-94.7265625,205.078125
1731718775632.4688,621.09375,-357.421875,-621.58203125,-281.73828125,821.2890625
1731718775636.375,343.75,-391.11328125,-1000,-1000,220.703125
1731718775640.2812,-328.125,-367.67578125,-1000,-1000,-706.54296875
1731718775644.1875,88.8671875,-356.93359375,-607.91015625,-566.40625,-90.8203125
1731718775648.0938,658.203125,-376.953125,-547.8515625,-66.40625,709.9609375
1731718775652,54.6875,-403.3203125,-996.58203125,-910.64453125,1.46484375
1731718775655.9062,-328.61328125,-345.21484375,-1000,-1000,-415.52734375
1731718775659.8125,-229.98046875,-360.3515625,-716.796875,-771.484375,-335.9375
1731718775663.7188,-7.32421875,-362.3046875,-672.8515625,123.046875,-329.1015625
1731718775667.625,22.4609375,-414.55078125,-989.2578125,-726.07421875,-184.5703125
1731718775671.5312,136.71875,-391.11328125,-993.1640625,-1000,270.5078125
1731718775675.4375,561.03515625,-291.50390625,-620.60546875,-927.734375,475.5859375
1731718775679.3438,-8.7890625,-336.9140625,-605.95703125,-1000,-228.515625
1731718775683.25,-120.60546875,-342.28515625,-965.8203125,-1000,-145.01953125
1731718775687.1562,508.30078125,-354.4921875,-1000,-1000,522.4609375
1731718775691.0625,709.47265625,-327.1484375,-749.51171875,-1000,667.96875
1731718775694.9688,-26.85546875,-314.453125,-700.1953125,-1000,-286.1328125
1731718775698.875,-351.07421875,-345.703125,-953.125,-1000,-502.9296875
1731718775702.7812,254.8828125,-313.96484375,-1000,-1000,226.07421875
1731718775706.6875,385.7421875,-290.0390625,-973.14453125,-1000,57.12890625
1731718775710.5938,52.734375,-293.45703125,-798.828125,-1000,-530.2734375
1731718775714.5,145.99609375,-334.47265625,-869.140625,-1000,-370.1171875
1731718775718.4062,674.8046875,-359.375,-1000,-1000,478.515625
1731718775722.3125,731.93359375,-292.96875,-891.11328125,-1000,571.2890625
1731718775726.2188,-361.81640625,-310.05859375,-856.4453125,-1000,-517.578125
1731718775730.125,-708.0078125,-360.3515625,-886.23046875,-1000,-699.70703125
1731718775734.0312,437.01171875,-347.16796875,-966.30859375,-978.02734375,428.22265625
1731718775737.9375,402.34375,-357.421875,-1000,-1000,447.265625
1731718775741.8438,-500,-340.33203125,-879.8828125,-1000,-467.28515625
1731718775745.75,-218.26171875,-345.703125,-606.4453125,-272.94921875,-256.8359375
1731718775749.6562,629.8828125,-353.02734375,-725.09765625,-296.875,697.75390625
1731718775753.5625,999.51171875,-329.1015625,-705.56640625,-994.62890625,999.51171875
1731718775757.4688,-236.328125,-364.74609375,-789.0625,-1000,-242.1875
1731718775761.375,-803.7109375,-404.78515625,-691.40625,199.70703125,-764.6484375
1731718775765.2812,375.48828125,-400.390625,-664.0625,999.51171875,501.46484375
1731718775769.1875,585.44921875,-424.31640625,-941.89453125,-158.203125,861.81640625
1731718775773.0938,-438.4765625,-437.01171875,-968.26171875,-1000,-306.15234375
1731718775777,-759.765625,-435.546875,-613.76953125,411.62109375,-619.62890625
1731718775780.9062,327.63671875,-472.65625,-432.12890625,999.51171875,507.8125
1731718775784.8125,328.125,-504.39453125,-893.5546875,893.06640625,408.203125
1731718775788.7188,-199.21875,-502.9296875,-963.37890625,977.5390625,-355.95703125
1731718775792.625,-40.52734375,-479.00390625,-456.0546875,967.7734375,-348.6328125
1731718775796.5312,400.390625,-520.5078125,-104.00390625,968.26171875,495.1171875
1731718775800.4375,217.28515625,-602.5390625,-469.7265625,967.7734375,796.38671875
1731718775804.3438,-334.47265625,-634.27734375,-642.578125,967.7734375,289.0625
1731718775808.25,-426.26953125,-617.67578125,-278.80859375,967.7734375,-34.66796875
1731718775812.1562,164.55078125,-622.0703125,177.24609375,967.7734375,458.984375
1731718775816.0625,620.1171875,-665.52734375,-44.43359375,968.26171875,732.91015625
1731718775819.9688,176.26953125,-714.84375,-390.13671875,968.26171875,314.453125
1731718775823.875,46.38671875,-710.9375,-51.7578125,967.7734375,355.95703125
1731718775827.7812,422.8515625,-708.49609375,459.47265625,968.26171875,603.02734375
1731718775831.6875,-114.2578125,-758.7890625,113.76953125,968.26171875,61.5234375
1731718775835.5938,-46.38671875,-770.5078125,-217.7734375,967.7734375,172.36328125
1731718775839.5,414.0625,-756.34765625,132.8125,967.7734375,668.45703125
1731718775843.4062,-83.0078125,-761.23046875,424.8046875,967.7734375,160.15625
1731718775847.3125,-466.30859375,-827.63671875,234.375,968.26171875,-313.96484375
1731718775851.2188,205.56640625,-845.703125,-83.984375,968.26171875,268.06640625
1731718775855.125,572.75390625,-813.4765625,92.7734375,967.7734375,649.90234375
1731718775859.0312,-189.94140625,-791.015625,466.30859375,968.26171875,261.71875
1731718775862.9375,-248.046875,-791.015625,635.25390625,968.26171875,345.703125
1731718775866.8438,527.83203125,-864.74609375,343.75,967.7734375,956.54296875
1731718775870.75,606.4453125,-832.51953125,211.9140625,968.26171875,758.7890625
1731718775874.6562,-398.92578125,-840.8203125,297.36328125,967.7734375,-146.484375
1731718775878.5625,-886.23046875,-858.88671875,439.453125,967.7734375,-475.09765625
1731718775882.4688,-20.01953125,-806.15234375,304.19921875,968.26171875,227.05078125
1731718775886.375,821.2890625,-807.12890625,316.40625,967.7734375,890.13671875
1731718775890.2812,11.23046875,-814.94140625,295.8984375,967.7734375,104.4921875
1731718775894.1875,-644.04296875,-835.44921875,386.71875,968.26171875,-580.56640625
1731718775898.0938,-234.86328125,-864.2578125,407.71484375,967.7734375,123.53515625
1731718775902,196.2890625,-835.9375,131.8359375,968.26171875,673.33984375
1731718775905.9062,215.8203125,-807.12890625,201.66015625,968.26171875,475.09765625
1731718775909.8125,-127.44140625,-798.33984375,530.76171875,968.26171875,243.65234375
1731718775913.7188,189.94140625,-829.58984375,679.19921875,968.26171875,549.8046875
1731718775917.625,828.125,-843.75,482.421875,967.7734375,953.61328125
1731718775921.5312,53.22265625,-854.00390625,250.9765625,967.7734375,421.875
1731718775925.4375,-803.7109375,-856.4453125,368.1640625,967.7734375,-368.65234375
1731718775929.3438,-155.76171875,-841.796875,729.4921875,968.26171875,263.671875
1731718775933.25,491.2109375,-837.40234375,419.43359375,968.26171875,783.69140625
1731718775937.1562,-147.4609375,-835.9375,-67.3828125,967.7734375,62.01171875
1731718775941.0625,-545.8984375,-798.33984375,112.79296875,967.7734375,-382.32421875
1731718775944.9688,240.72265625,-775.87890625,565.4296875,968.26171875,320.3125
1731718775948.875,393.5546875,-780.2734375,281.25,968.26171875,563.4765625
